REVNUM:,TIA/EIA-804-B
COMNT1:,Standard TIA/EIA Antenna Pattern Data
COMNT2:,Stated gain is nominal
ANTMAN:,RF Industries Pty Ltd
MODNUM:,COL43-420
DESCR1:,Meander collinear,  400-420MHz
DESCR2:,Omnidirectional antenna, 5dBd
DTDATA:,20141125
LOWFRQ:,400
HGHFRQ:,420
GUNITS:,DBD/DBR
MDGAIN:,5
AZWIDT:,360
ELWIDT:,20.6
CONTYP:,7/16 DIN Silver Plated
ATVSWR:,1.5
FRTOBA:,n/a
ELTILT:,0
MAXPOW:,250
ANTLEN:,2.035
ANTWID:,0.048
ANTWGT:,2.9
PATTYP:,Typical
NOFREQ:,1
PATFRE:,410
NUMCUT:,2
PATCUT:,V
POLARI:,V/V
NUPOIN:,360
FSTLST:,-179,180
-179,-0.166
-178,-0.064
-177,-0.004
-176,0.000
-175,-0.045
-174,-0.153
-173,-0.312
-172,-0.521
-171,-0.802
-170,-1.120
-169,-1.512
-168,-1.935
-167,-2.478
-166,-3.038
-165,-3.702
-164,-4.399
-163,-5.219
-162,-6.044
-161,-7.030
-160,-8.008
-159,-9.013
-158,-10.062
-157,-10.988
-156,-12.027
-155,-12.931
-154,-13.574
-153,-13.939
-152,-14.078
-151,-13.931
-150,-13.554
-149,-13.092
-148,-12.646
-147,-12.149
-146,-11.658
-145,-11.197
-144,-10.816
-143,-10.470
-142,-10.160
-141,-9.937
-140,-9.783
-139,-9.647
-138,-9.563
-137,-9.510
-136,-9.537
-135,-9.590
-134,-9.689
-133,-9.840
-132,-10.084
-131,-10.344
-130,-10.588
-129,-10.995
-128,-11.395
-127,-11.830
-126,-12.365
-125,-13.013
-124,-13.634
-123,-14.210
-122,-14.919
-121,-15.576
-120,-16.440
-119,-17.309
-118,-18.087
-117,-18.705
-116,-19.514
-115,-20.282
-114,-20.959
-113,-21.638
-112,-22.095
-111,-22.387
-110,-22.574
-109,-22.688
-108,-22.798
-107,-22.889
-106,-22.796
-105,-23.073
-104,-23.190
-103,-23.250
-102,-23.368
-101,-23.602
-100,-23.642
-99,-24.053
-98,-24.415
-97,-24.531
-96,-25.306
-95,-25.815
-94,-26.579
-93,-27.119
-92,-27.667
-91,-28.280
-90,-28.860
-89,-28.952
-88,-29.168
-87,-29.564
-86,-29.956
-85,-30.204
-84,-30.420
-83,-28.624
-82,-28.507
-81,-27.910
-80,-27.550
-79,-27.567
-78,-27.586
-77,-27.581
-76,-27.764
-75,-28.118
-74,-28.532
-73,-29.364
-72,-30.331
-71,-31.580
-70,-33.252
-69,-34.394
-68,-34.026
-67,-33.336
-66,-31.215
-65,-28.631
-64,-26.372
-63,-24.638
-62,-22.764
-61,-21.323
-60,-19.929
-59,-18.441
-58,-17.314
-57,-16.409
-56,-15.461
-55,-14.605
-54,-13.840
-53,-13.177
-52,-12.494
-51,-11.959
-50,-11.495
-49,-10.973
-48,-10.649
-47,-10.326
-46,-10.044
-45,-9.834
-44,-9.647
-43,-9.610
-42,-9.458
-41,-9.499
-40,-9.599
-39,-9.849
-38,-10.066
-37,-10.390
-36,-10.721
-35,-11.124
-34,-11.605
-33,-11.831
-32,-12.397
-31,-12.925
-30,-13.293
-29,-13.667
-28,-13.790
-27,-13.544
-26,-13.268
-25,-12.608
-24,-11.761
-23,-10.845
-22,-9.916
-21,-9.046
-20,-8.164
-19,-7.239
-18,-6.409
-17,-5.587
-16,-4.850
-15,-4.191
-14,-3.577
-13,-2.974
-12,-2.456
-11,-1.968
-10,-1.513
-9,-1.169
-8,-0.842
-7,-0.574
-6,-0.347
-5,-0.191
-4,-0.082
-3,-0.027
-2,-0.063
-1,-0.143
0,-0.273
1,-0.480
2,-0.735
3,-1.045
4,-1.393
5,-1.861
6,-2.327
7,-2.940
8,-3.654
9,-4.244
10,-5.070
11,-5.919
12,-6.953
13,-8.059
14,-9.290
15,-10.650
16,-12.084
17,-13.879
18,-15.880
19,-18.654
20,-21.410
21,-23.330
22,-23.008
23,-20.713
24,-18.677
25,-16.772
26,-15.204
27,-14.032
28,-13.025
29,-12.163
30,-11.471
31,-10.928
32,-10.484
33,-10.172
34,-9.893
35,-9.739
36,-9.703
37,-9.745
38,-9.840
39,-9.988
40,-10.242
41,-10.623
42,-11.057
43,-11.529
44,-12.203
45,-12.824
46,-13.437
47,-14.344
48,-15.225
49,-15.934
50,-16.741
51,-17.311
52,-17.627
53,-17.658
54,-17.300
55,-16.953
56,-16.562
57,-16.011
58,-15.404
59,-14.867
60,-14.405
61,-13.982
62,-13.626
63,-13.349
64,-13.153
65,-12.966
66,-12.830
67,-12.783
68,-12.813
69,-12.833
70,-12.938
71,-13.103
72,-13.322
73,-13.570
74,-13.957
75,-14.319
76,-14.692
77,-15.238
78,-15.839
79,-16.490
80,-17.218
81,-18.147
82,-19.154
83,-20.202
84,-21.482
85,-22.819
86,-24.423
87,-26.497
88,-28.964
89,-31.351
90,-31.088
91,-31.811
92,-28.344
93,-25.929
94,-23.963
95,-21.921
96,-20.631
97,-19.408
98,-18.264
99,-17.382
100,-16.710
101,-16.007
102,-15.416
103,-14.858
104,-14.454
105,-14.109
106,-13.713
107,-13.378
108,-13.132
109,-12.990
110,-12.831
111,-12.792
112,-12.657
113,-12.608
114,-12.711
115,-12.859
116,-13.089
117,-13.326
118,-13.595
119,-13.968
120,-14.475
121,-15.001
122,-15.638
123,-16.260
124,-16.843
125,-17.503
126,-17.969
127,-18.227
128,-18.117
129,-17.736
130,-17.057
131,-16.317
132,-15.058
133,-14.171
134,-13.356
135,-12.605
136,-11.950
137,-11.308
138,-10.748
139,-10.312
140,-9.947
141,-9.664
142,-9.504
143,-9.374
144,-9.338
145,-9.389
146,-9.535
147,-9.795
148,-10.187
149,-10.669
150,-11.341
151,-12.159
152,-13.132
153,-14.283
154,-15.876
155,-17.812
156,-20.456
157,-23.472
158,-24.574
159,-21.985
160,-18.866
161,-16.295
162,-14.058
163,-12.221
164,-10.755
165,-9.583
166,-8.375
167,-7.318
168,-6.435
169,-5.569
170,-4.785
171,-4.126
172,-3.541
173,-2.964
174,-2.405
175,-1.928
176,-1.501
177,-1.162
178,-0.858
179,-0.568
180,-0.327
PATCUT:,H
POLARI:,V/V
NUPOIN:,360
FSTLST:,-179,180
-179,-0.047
-178,-0.046
-177,-0.046
-176,-0.045
-175,-0.045
-174,-0.044
-173,-0.043
-172,-0.041
-171,-0.040
-170,-0.039
-169,-0.037
-168,-0.036
-167,-0.034
-166,-0.032
-165,-0.030
-164,-0.028
-163,-0.027
-162,-0.025
-161,-0.023
-160,-0.021
-159,-0.019
-158,-0.017
-157,-0.015
-156,-0.013
-155,-0.012
-154,-0.010
-153,-0.009
-152,-0.007
-151,-0.006
-150,-0.005
-149,-0.003
-148,-0.003
-147,-0.002
-146,-0.001
-145,-0.001
-144,0.000
-143,0.000
-142,0.000
-141,0.000
-140,0.000
-139,-0.001
-138,-0.002
-137,-0.003
-136,-0.004
-135,-0.005
-134,-0.006
-133,-0.008
-132,-0.010
-131,-0.012
-130,-0.014
-129,-0.016
-128,-0.019
-127,-0.021
-126,-0.024
-125,-0.027
-124,-0.030
-123,-0.033
-122,-0.036
-121,-0.040
-120,-0.043
-119,-0.047
-118,-0.050
-117,-0.054
-116,-0.058
-115,-0.061
-114,-0.065
-113,-0.069
-112,-0.073
-111,-0.076
-110,-0.080
-109,-0.084
-108,-0.087
-107,-0.091
-106,-0.094
-105,-0.098
-104,-0.101
-103,-0.104
-102,-0.107
-101,-0.109
-100,-0.112
-99,-0.114
-98,-0.116
-97,-0.118
-96,-0.120
-95,-0.121
-94,-0.122
-93,-0.123
-92,-0.124
-91,-0.124
-90,-0.124
-89,-0.124
-88,-0.124
-87,-0.123
-86,-0.122
-85,-0.121
-84,-0.120
-83,-0.118
-82,-0.116
-81,-0.114
-80,-0.112
-79,-0.109
-78,-0.107
-77,-0.104
-76,-0.101
-75,-0.098
-74,-0.094
-73,-0.091
-72,-0.087
-71,-0.084
-70,-0.080
-69,-0.076
-68,-0.073
-67,-0.069
-66,-0.065
-65,-0.061
-64,-0.058
-63,-0.054
-62,-0.050
-61,-0.047
-60,-0.043
-59,-0.040
-58,-0.036
-57,-0.033
-56,-0.030
-55,-0.027
-54,-0.024
-53,-0.021
-52,-0.019
-51,-0.016
-50,-0.014
-49,-0.012
-48,-0.010
-47,-0.008
-46,-0.006
-45,-0.005
-44,-0.004
-43,-0.003
-42,-0.002
-41,-0.001
-40,0.000
-39,0.000
-38,0.000
-37,0.000
-36,0.000
-35,-0.001
-34,-0.001
-33,-0.002
-32,-0.003
-31,-0.003
-30,-0.005
-29,-0.006
-28,-0.007
-27,-0.009
-26,-0.010
-25,-0.012
-24,-0.013
-23,-0.015
-22,-0.017
-21,-0.019
-20,-0.021
-19,-0.023
-18,-0.025
-17,-0.027
-16,-0.028
-15,-0.030
-14,-0.032
-13,-0.034
-12,-0.036
-11,-0.037
-10,-0.039
-9,-0.040
-8,-0.041
-7,-0.043
-6,-0.044
-5,-0.045
-4,-0.045
-3,-0.046
-2,-0.046
-1,-0.047
0,-0.047
1,-0.047
2,-0.047
3,-0.046
4,-0.046
5,-0.045
6,-0.044
7,-0.044
8,-0.043
9,-0.041
10,-0.040
11,-0.039
12,-0.037
13,-0.036
14,-0.034
15,-0.032
16,-0.031
17,-0.029
18,-0.027
19,-0.025
20,-0.024
21,-0.022
22,-0.020
23,-0.018
24,-0.017
25,-0.015
26,-0.014
27,-0.012
28,-0.011
29,-0.010
30,-0.008
31,-0.007
32,-0.007
33,-0.006
34,-0.005
35,-0.005
36,-0.005
37,-0.005
38,-0.005
39,-0.005
40,-0.005
41,-0.006
42,-0.007
43,-0.008
44,-0.009
45,-0.010
46,-0.012
47,-0.013
48,-0.015
49,-0.017
50,-0.019
51,-0.022
52,-0.024
53,-0.027
54,-0.030
55,-0.033
56,-0.036
57,-0.039
58,-0.042
59,-0.046
60,-0.049
61,-0.053
62,-0.056
63,-0.060
64,-0.064
65,-0.068
66,-0.071
67,-0.075
68,-0.079
69,-0.083
70,-0.086
71,-0.090
72,-0.094
73,-0.097
74,-0.101
75,-0.104
76,-0.107
77,-0.110
78,-0.113
79,-0.116
80,-0.118
81,-0.121
82,-0.123
83,-0.124
84,-0.126
85,-0.128
86,-0.129
87,-0.130
88,-0.130
89,-0.131
90,-0.131
91,-0.131
92,-0.130
93,-0.130
94,-0.129
95,-0.128
96,-0.126
97,-0.124
98,-0.123
99,-0.121
100,-0.118
101,-0.116
102,-0.113
103,-0.110
104,-0.107
105,-0.104
106,-0.101
107,-0.097
108,-0.094
109,-0.090
110,-0.086
111,-0.083
112,-0.079
113,-0.075
114,-0.071
115,-0.068
116,-0.064
117,-0.060
118,-0.056
119,-0.053
120,-0.049
121,-0.046
122,-0.042
123,-0.039
124,-0.036
125,-0.033
126,-0.030
127,-0.027
128,-0.024
129,-0.022
130,-0.019
131,-0.017
132,-0.015
133,-0.013
134,-0.012
135,-0.010
136,-0.009
137,-0.008
138,-0.007
139,-0.006
140,-0.005
141,-0.005
142,-0.005
143,-0.005
144,-0.005
145,-0.005
146,-0.005
147,-0.006
148,-0.007
149,-0.007
150,-0.008
151,-0.010
152,-0.011
153,-0.012
154,-0.014
155,-0.015
156,-0.017
157,-0.018
158,-0.020
159,-0.022
160,-0.024
161,-0.025
162,-0.027
163,-0.029
164,-0.031
165,-0.032
166,-0.034
167,-0.036
168,-0.037
169,-0.039
170,-0.040
171,-0.041
172,-0.043
173,-0.044
174,-0.044
175,-0.045
176,-0.046
177,-0.046
178,-0.047
179,-0.047
180,-0.047
ENDFIL:,EOF
