REVNUM:,TIA/EIA-804-B
COMNT1:,Standard TIA/EIA Antenna Pattern Data
COMNT2:,Stated gain is nominal
ANTMAN:,RF Industries Pty Ltd
MODNUM:,COL43-400
DESCR1:,3 Element Meander Collinear Antenna
DESCR2:,Omnidirectional, 5dBd
DTDATA:,20141125
LOWFRQ:,380
HGHFRQ:,400
GUNITS:,DBD/DBR
MDGAIN:,5
AZWIDT:,360
ELWIDT:,19
CONTYP:,N type (F)
ATVSWR:,1.5
FRTOBA:,n/a
ELTILT:,0
MAXPOW:,250
ANTLEN:,2.17
ANTWID:,0.484
ANTWGT:,2.9
PATTYP:,Typical
NOFREQ:,1
PATFRE:,390
NUMCUT:,2
PATCUT:,V
POLARI:,V/V
NUPOIN:,360
FSTLST:,-179,180
-179,-0.156
-178,-0.042
-177,0.000
-176,-0.020
-175,-0.098
-174,-0.255
-173,-0.483
-172,-0.777
-171,-1.142
-170,-1.547
-169,-2.088
-168,-2.663
-167,-3.320
-166,-4.032
-165,-4.834
-164,-5.650
-163,-6.548
-162,-7.561
-161,-8.619
-160,-9.658
-159,-10.770
-158,-11.641
-157,-12.471
-156,-13.121
-155,-13.461
-154,-13.311
-153,-12.919
-152,-12.353
-151,-11.714
-150,-10.950
-149,-10.180
-148,-9.534
-147,-9.006
-146,-8.462
-145,-8.010
-144,-7.583
-143,-7.245
-142,-6.984
-141,-6.774
-140,-6.635
-139,-6.547
-138,-6.546
-137,-6.627
-136,-6.757
-135,-6.964
-134,-7.151
-133,-7.454
-132,-7.835
-131,-8.232
-130,-8.687
-129,-9.170
-128,-9.718
-127,-10.235
-126,-10.870
-125,-11.558
-124,-12.250
-123,-12.950
-122,-13.582
-121,-14.246
-120,-14.822
-119,-15.332
-118,-15.824
-117,-16.202
-116,-16.490
-115,-16.726
-114,-16.908
-113,-16.956
-112,-16.988
-111,-17.012
-110,-17.065
-109,-17.170
-108,-17.321
-107,-17.475
-106,-17.665
-105,-17.952
-104,-18.293
-103,-18.688
-102,-19.187
-101,-19.749
-100,-20.389
-99,-21.133
-98,-22.015
-97,-22.993
-96,-24.389
-95,-25.854
-94,-27.730
-93,-30.205
-92,-33.668
-91,-39.697
-90,-40.000
-89,-40.000
-88,-39.697
-87,-33.668
-86,-30.205
-85,-27.730
-84,-25.854
-83,-24.389
-82,-22.993
-81,-22.015
-80,-21.133
-79,-20.389
-78,-19.749
-77,-19.187
-76,-18.688
-75,-18.293
-74,-17.952
-73,-17.665
-72,-17.475
-71,-17.321
-70,-17.170
-69,-17.065
-68,-17.012
-67,-16.988
-66,-16.956
-65,-16.908
-64,-16.726
-63,-16.490
-62,-16.202
-61,-15.824
-60,-15.332
-59,-14.822
-58,-14.246
-57,-13.582
-56,-12.950
-55,-12.250
-54,-11.558
-53,-10.870
-52,-10.235
-51,-9.718
-50,-9.170
-49,-8.687
-48,-8.232
-47,-7.835
-46,-7.454
-45,-7.151
-44,-6.964
-43,-6.757
-42,-6.627
-41,-6.546
-40,-6.547
-39,-6.635
-38,-6.774
-37,-6.984
-36,-7.245
-35,-7.583
-34,-8.010
-33,-8.462
-32,-9.006
-31,-9.534
-30,-10.180
-29,-10.950
-28,-11.714
-27,-12.353
-26,-12.919
-25,-13.311
-24,-13.461
-23,-13.121
-22,-12.471
-21,-11.641
-20,-10.770
-19,-9.658
-18,-8.619
-17,-7.561
-16,-6.548
-15,-5.650
-14,-4.834
-13,-4.032
-12,-3.320
-11,-2.663
-10,-2.088
-9,-1.547
-8,-1.142
-7,-0.777
-6,-0.483
-5,-0.255
-4,-0.098
-3,-0.020
-2,0.000
-1,-0.042
0,-0.156
1,-0.336
2,-0.616
3,-0.939
4,-1.316
5,-1.769
6,-2.279
7,-2.921
8,-3.651
9,-4.433
10,-5.312
11,-6.364
12,-7.487
13,-8.935
14,-10.475
15,-12.215
16,-14.628
17,-17.545
18,-21.516
19,-24.719
20,-25.046
21,-21.452
22,-17.616
23,-15.212
24,-13.310
25,-11.824
26,-10.641
27,-9.679
28,-8.917
29,-8.308
30,-7.844
31,-7.467
32,-7.173
33,-6.982
34,-6.886
35,-6.898
36,-6.938
37,-7.089
38,-7.293
39,-7.576
40,-7.949
41,-8.405
42,-8.885
43,-9.422
44,-9.991
45,-10.501
46,-11.081
47,-11.596
48,-12.014
49,-12.328
50,-12.485
51,-12.383
52,-12.166
53,-11.782
54,-11.428
55,-11.044
56,-10.641
57,-10.260
58,-9.833
59,-9.594
60,-9.442
61,-9.193
62,-9.071
63,-8.972
64,-8.894
65,-8.902
66,-8.934
67,-8.995
68,-9.082
69,-9.223
70,-9.286
71,-9.591
72,-9.811
73,-10.142
74,-10.493
75,-10.919
76,-11.312
77,-11.800
78,-12.325
79,-12.905
80,-13.662
81,-14.405
82,-15.373
83,-16.215
84,-17.401
85,-18.768
86,-20.355
87,-22.277
88,-24.563
89,-28.158
90,-33.491
91,-33.491
92,-28.158
93,-24.563
94,-22.277
95,-20.355
96,-18.768
97,-17.401
98,-16.215
99,-15.373
100,-14.405
101,-13.662
102,-12.905
103,-12.325
104,-11.800
105,-11.312
106,-10.919
107,-10.493
108,-10.142
109,-9.811
110,-9.591
111,-9.286
112,-9.223
113,-9.082
114,-8.995
115,-8.934
116,-8.902
117,-8.894
118,-8.972
119,-9.071
120,-9.193
121,-9.442
122,-9.594
123,-9.833
124,-10.260
125,-10.641
126,-11.044
127,-11.428
128,-11.782
129,-12.166
130,-12.383
131,-12.485
132,-12.328
133,-12.014
134,-11.596
135,-11.081
136,-10.501
137,-9.991
138,-9.422
139,-8.885
140,-8.405
141,-7.949
142,-7.576
143,-7.293
144,-7.089
145,-6.938
146,-6.898
147,-6.886
148,-6.982
149,-7.173
150,-7.467
151,-7.844
152,-8.308
153,-8.917
154,-9.679
155,-10.641
156,-11.824
157,-13.310
158,-15.212
159,-17.616
160,-21.452
161,-25.046
162,-24.719
163,-21.516
164,-17.545
165,-14.628
166,-12.215
167,-10.475
168,-8.935
169,-7.487
170,-6.364
171,-5.312
172,-4.433
173,-3.651
174,-2.921
175,-2.279
176,-1.769
177,-1.316
178,-0.939
179,-0.616
180,-0.336
PATCUT:,H
POLARI:,V/V
NUPOIN:,360
FSTLST:,-179,180
-179,-0.047
-178,-0.046
-177,-0.046
-176,-0.045
-175,-0.045
-174,-0.044
-173,-0.043
-172,-0.041
-171,-0.040
-170,-0.039
-169,-0.037
-168,-0.036
-167,-0.034
-166,-0.032
-165,-0.030
-164,-0.028
-163,-0.027
-162,-0.025
-161,-0.023
-160,-0.021
-159,-0.019
-158,-0.017
-157,-0.015
-156,-0.013
-155,-0.012
-154,-0.010
-153,-0.009
-152,-0.007
-151,-0.006
-150,-0.005
-149,-0.003
-148,-0.003
-147,-0.002
-146,-0.001
-145,-0.001
-144,0.000
-143,0.000
-142,0.000
-141,0.000
-140,0.000
-139,-0.001
-138,-0.002
-137,-0.003
-136,-0.004
-135,-0.005
-134,-0.006
-133,-0.008
-132,-0.010
-131,-0.012
-130,-0.014
-129,-0.016
-128,-0.019
-127,-0.021
-126,-0.024
-125,-0.027
-124,-0.030
-123,-0.033
-122,-0.036
-121,-0.040
-120,-0.043
-119,-0.047
-118,-0.050
-117,-0.054
-116,-0.058
-115,-0.061
-114,-0.065
-113,-0.069
-112,-0.073
-111,-0.076
-110,-0.080
-109,-0.084
-108,-0.087
-107,-0.091
-106,-0.094
-105,-0.098
-104,-0.101
-103,-0.104
-102,-0.107
-101,-0.109
-100,-0.112
-99,-0.114
-98,-0.116
-97,-0.118
-96,-0.120
-95,-0.121
-94,-0.122
-93,-0.123
-92,-0.124
-91,-0.124
-90,-0.124
-89,-0.124
-88,-0.124
-87,-0.123
-86,-0.122
-85,-0.121
-84,-0.120
-83,-0.118
-82,-0.116
-81,-0.114
-80,-0.112
-79,-0.109
-78,-0.107
-77,-0.104
-76,-0.101
-75,-0.098
-74,-0.094
-73,-0.091
-72,-0.087
-71,-0.084
-70,-0.080
-69,-0.076
-68,-0.073
-67,-0.069
-66,-0.065
-65,-0.061
-64,-0.058
-63,-0.054
-62,-0.050
-61,-0.047
-60,-0.043
-59,-0.040
-58,-0.036
-57,-0.033
-56,-0.030
-55,-0.027
-54,-0.024
-53,-0.021
-52,-0.019
-51,-0.016
-50,-0.014
-49,-0.012
-48,-0.010
-47,-0.008
-46,-0.006
-45,-0.005
-44,-0.004
-43,-0.003
-42,-0.002
-41,-0.001
-40,0.000
-39,0.000
-38,0.000
-37,0.000
-36,0.000
-35,-0.001
-34,-0.001
-33,-0.002
-32,-0.003
-31,-0.003
-30,-0.005
-29,-0.006
-28,-0.007
-27,-0.009
-26,-0.010
-25,-0.012
-24,-0.013
-23,-0.015
-22,-0.017
-21,-0.019
-20,-0.021
-19,-0.023
-18,-0.025
-17,-0.027
-16,-0.028
-15,-0.030
-14,-0.032
-13,-0.034
-12,-0.036
-11,-0.037
-10,-0.039
-9,-0.040
-8,-0.041
-7,-0.043
-6,-0.044
-5,-0.045
-4,-0.045
-3,-0.046
-2,-0.046
-1,-0.047
0,-0.047
1,-0.047
2,-0.047
3,-0.046
4,-0.046
5,-0.045
6,-0.044
7,-0.044
8,-0.043
9,-0.041
10,-0.040
11,-0.039
12,-0.037
13,-0.036
14,-0.034
15,-0.032
16,-0.031
17,-0.029
18,-0.027
19,-0.025
20,-0.024
21,-0.022
22,-0.020
23,-0.018
24,-0.017
25,-0.015
26,-0.014
27,-0.012
28,-0.011
29,-0.010
30,-0.008
31,-0.007
32,-0.007
33,-0.006
34,-0.005
35,-0.005
36,-0.005
37,-0.005
38,-0.005
39,-0.005
40,-0.005
41,-0.006
42,-0.007
43,-0.008
44,-0.009
45,-0.010
46,-0.012
47,-0.013
48,-0.015
49,-0.017
50,-0.019
51,-0.022
52,-0.024
53,-0.027
54,-0.030
55,-0.033
56,-0.036
57,-0.039
58,-0.042
59,-0.046
60,-0.049
61,-0.053
62,-0.056
63,-0.060
64,-0.064
65,-0.068
66,-0.071
67,-0.075
68,-0.079
69,-0.083
70,-0.086
71,-0.090
72,-0.094
73,-0.097
74,-0.101
75,-0.104
76,-0.107
77,-0.110
78,-0.113
79,-0.116
80,-0.118
81,-0.121
82,-0.123
83,-0.124
84,-0.126
85,-0.128
86,-0.129
87,-0.130
88,-0.130
89,-0.131
90,-0.131
91,-0.131
92,-0.130
93,-0.130
94,-0.129
95,-0.128
96,-0.126
97,-0.124
98,-0.123
99,-0.121
100,-0.118
101,-0.116
102,-0.113
103,-0.110
104,-0.107
105,-0.104
106,-0.101
107,-0.097
108,-0.094
109,-0.090
110,-0.086
111,-0.083
112,-0.079
113,-0.075
114,-0.071
115,-0.068
116,-0.064
117,-0.060
118,-0.056
119,-0.053
120,-0.049
121,-0.046
122,-0.042
123,-0.039
124,-0.036
125,-0.033
126,-0.030
127,-0.027
128,-0.024
129,-0.022
130,-0.019
131,-0.017
132,-0.015
133,-0.013
134,-0.012
135,-0.010
136,-0.009
137,-0.008
138,-0.007
139,-0.006
140,-0.005
141,-0.005
142,-0.005
143,-0.005
144,-0.005
145,-0.005
146,-0.005
147,-0.006
148,-0.007
149,-0.007
150,-0.008
151,-0.010
152,-0.011
153,-0.012
154,-0.014
155,-0.015
156,-0.017
157,-0.018
158,-0.020
159,-0.022
160,-0.024
161,-0.025
162,-0.027
163,-0.029
164,-0.031
165,-0.032
166,-0.034
167,-0.036
168,-0.037
169,-0.039
170,-0.040
171,-0.041
172,-0.043
173,-0.044
174,-0.044
175,-0.045
176,-0.046
177,-0.046
178,-0.047
179,-0.047
180,-0.047
ENDFIL:,EOF
