REVNUM:,TIA/EIA-804-B
COMNT1:,Standard TIA/EIA Antenna Pattern Data
ANTMAN:,RF Industries Pty Ltd
MODNUM:,GP2
DESCR1:,ADJUSTABLE GROUND PLANE ANTENNA
DESCR2:,Omnidirectional, UNITY GAIN
DTDATA:,201507227
LOWFRQ:,148
HGHFRQ:,175
GUNITS:,DBD/DBR
MDGAIN:,0.0
AZWIDT:,360
ELWIDT:,75
CONTYP:,N type (F)
ATVSWR:,1.5
FRTOBA:,n/a
ELTILT:,0
MAXPOW:,200
ANTLEN:,1300
ANTWID:,1500
ANTWGT:,2
PATTYP:,Typical
NOFREQ:,1
PATFRE:,148
NUMCUT:,2
PATCUT:,V
POLARI:,V/V
NUPOIN:,360
FSTLST:,-179,180
-179,0.000
-178,0.000
-177,-0.004
-176,-0.011
-175,-0.037
-174,-0.022
-173,-0.055
-172,-0.076
-171,-0.130
-170,-0.102
-169,-0.163
-168,-0.199
-167,-0.239
-166,-0.282
-165,-0.329
-164,-0.380
-163,-0.434
-162,-0.492
-161,-0.554
-160,-0.620
-159,-0.689
-158,-0.762
-157,-0.839
-156,-0.920
-155,-1.005
-154,-1.094
-153,-1.186
-152,-1.283
-151,-1.383
-150,-1.488
-149,-1.596
-148,-1.709
-147,-1.826
-146,-1.947
-145,-2.073
-144,-2.203
-143,-2.337
-142,-2.476
-141,-2.619
-140,-2.767
-139,-2.920
-138,-3.077
-137,-3.240
-136,-3.407
-135,-3.580
-134,-3.758
-133,-3.941
-132,-4.130
-131,-4.325
-130,-4.526
-129,-4.733
-128,-4.946
-127,-5.166
-126,-5.393
-125,-5.626
-124,-5.868
-123,-6.117
-122,-6.374
-121,-6.640
-120,-6.915
-119,-7.199
-118,-7.494
-117,-7.799
-116,-8.116
-115,-8.445
-114,-8.787
-113,-9.144
-112,-9.515
-111,-9.903
-110,-10.310
-109,-10.736
-108,-11.184
-107,-11.655
-106,-12.154
-105,-12.683
-104,-13.245
-103,-13.846
-102,-14.490
-101,-15.186
-100,-15.942
-99,-16.769
-98,-17.683
-97,-18.703
-96,-19.858
-95,-21.190
-94,-24.684
-93,-22.763
-92,-27.153
-91,-30.613
-90,-36.444
-89,-40.000
-88,-37.172
-87,-30.978
-86,-27.396
-85,-24.866
-84,-22.909
-83,-21.312
-82,-19.962
-81,-18.794
-80,-17.763
-79,-16.842
-78,-16.008
-77,-15.246
-76,-14.546
-75,-13.897
-74,-13.292
-73,-12.727
-72,-12.196
-71,-11.695
-70,-10.771
-69,-11.221
-68,-10.343
-67,-9.935
-66,-9.545
-65,-9.172
-64,-8.814
-63,-8.471
-62,-8.141
-61,-7.823
-60,-7.517
-59,-7.221
-58,-6.936
-57,-6.660
-56,-6.393
-55,-6.135
-54,-5.886
-53,-5.644
-52,-5.409
-51,-5.182
-50,-4.961
-49,-4.748
-48,-4.540
-47,-4.339
-46,-4.144
-45,-3.954
-44,-3.770
-43,-3.592
-42,-3.419
-41,-3.251
-40,-3.088
-39,-2.930
-38,-2.777
-37,-2.628
-36,-2.485
-35,-2.346
-34,-2.211
-33,-2.081
-32,-1.955
-31,-1.833
-30,-1.716
-29,-1.603
-28,-1.494
-27,-1.389
-26,-1.288
-25,-1.191
-24,-1.099
-23,-1.010
-22,-0.925
-21,-0.844
-20,-0.766
-19,-0.693
-18,-0.623
-17,-0.557
-16,-0.495
-15,-0.437
-14,-0.382
-13,-0.331
-12,-0.284
-11,-0.241
-10,-0.201
-9,-0.164
-8,-0.132
-7,-0.103
-6,-0.077
-5,-0.037
-4,-0.056
-3,-0.023
-2,-0.012
-1,-0.004
0,0.000
1,0.000
2,-0.003
3,-0.020
4,-0.010
5,-0.034
6,-0.052
7,-0.098
8,-0.073
9,-0.126
10,-0.158
11,-0.193
12,-0.232
13,-0.275
14,-0.321
15,-0.370
16,-0.424
17,-0.481
18,-0.542
19,-0.606
20,-0.674
21,-0.746
22,-0.821
23,-0.900
24,-0.983
25,-1.070
26,-1.160
27,-1.255
28,-1.353
29,-1.455
30,-1.561
31,-1.671
32,-1.785
33,-1.903
34,-2.026
35,-2.152
36,-2.283
37,-2.418
38,-2.557
39,-2.701
40,-2.850
41,-3.003
42,-3.161
43,-3.323
44,-3.491
45,-3.664
46,-3.842
47,-4.025
48,-4.214
49,-4.408
50,-4.608
51,-4.815
52,-5.027
53,-5.247
54,-5.473
55,-5.706
56,-5.946
57,-6.195
58,-6.451
59,-6.716
60,-6.990
61,-7.274
62,-7.568
63,-7.872
64,-8.188
65,-8.517
66,-8.858
67,-9.214
68,-9.586
69,-9.974
70,-10.380
71,-10.806
72,-11.254
73,-11.726
74,-12.226
75,-12.756
76,-13.320
77,-13.922
78,-14.570
79,-15.269
80,-16.029
81,-16.862
82,-17.782
83,-18.811
84,-19.978
85,-21.326
86,-22.922
87,-24.877
88,-27.403
89,-30.978
90,-37.151
91,-40.000
92,-36.496
93,-30.650
94,-27.184
95,-24.713
96,-22.791
97,-21.218
98,-19.886
99,-18.731
100,-17.711
101,-16.799
102,-15.972
103,-15.217
104,-14.523
105,-13.879
106,-13.280
107,-12.719
108,-11.695
109,-12.192
110,-11.225
111,-10.778
112,-10.354
113,-9.950
114,-9.563
115,-9.193
116,-8.839
117,-8.498
118,-8.171
119,-7.856
120,-7.552
121,-7.260
122,-6.977
123,-6.704
124,-6.439
125,-6.184
126,-5.936
127,-5.696
128,-5.464
129,-5.238
130,-5.020
131,-4.808
132,-4.602
133,-4.402
134,-4.208
135,-4.020
136,-3.837
137,-3.659
138,-3.487
139,-3.320
140,-3.158
141,-3.000
142,-2.847
143,-2.699
144,-2.556
145,-2.416
146,-2.282
147,-2.151
148,-2.025
149,-1.903
150,-1.785
151,-1.671
152,-1.561
153,-1.455
154,-1.353
155,-1.255
156,-1.161
157,-1.070
158,-0.984
159,-0.901
160,-0.822
161,-0.746
162,-0.675
163,-0.607
164,-0.543
165,-0.482
166,-0.425
167,-0.371
168,-0.322
169,-0.275
170,-0.233
171,-0.194
172,-0.159
173,-0.127
174,-0.098
175,-0.074
176,-0.052
177,-0.035
178,-0.021
179,-0.010
180,-0.003
PATCUT:,H
POLARI:,V/V
NUPOIN:,360
FSTLST:,-179,180
-179,0.000
-178,0.000
-177,0.000
-176,0.000
-175,0.000
-174,0.000
-173,0.000
-172,0.000
-171,0.000
-170,0.000
-169,0.000
-168,0.000
-167,0.000
-166,0.000
-165,0.000
-164,0.000
-163,0.000
-162,0.000
-161,0.000
-160,0.000
-159,0.000
-158,0.000
-157,0.000
-156,0.000
-155,0.000
-154,0.000
-153,0.000
-152,0.000
-151,0.000
-150,0.000
-149,0.000
-148,0.000
-147,0.000
-146,0.000
-145,0.000
-144,0.000
-143,0.000
-142,0.000
-141,0.000
-140,0.000
-139,0.000
-138,0.000
-137,0.000
-136,0.000
-135,0.000
-134,0.000
-133,0.000
-132,0.000
-131,0.000
-130,0.000
-129,0.000
-128,0.000
-127,0.000
-126,0.000
-125,0.000
-124,0.000
-123,0.000
-122,0.000
-121,0.000
-120,0.000
-119,0.000
-118,0.000
-117,0.000
-116,0.000
-115,0.000
-114,0.000
-113,0.000
-112,0.000
-111,0.000
-110,0.000
-109,0.000
-108,0.000
-107,0.000
-106,0.000
-105,0.000
-104,0.000
-103,0.000
-102,0.000
-101,0.000
-100,0.000
-99,0.000
-98,0.000
-97,0.000
-96,0.000
-95,0.000
-94,0.000
-93,0.000
-92,0.000
-91,0.000
-90,0.000
-89,0.000
-88,0.000
-87,0.000
-86,0.000
-85,0.000
-84,0.000
-83,0.000
-82,0.000
-81,0.000
-80,0.000
-79,0.000
-78,0.000
-77,0.000
-76,0.000
-75,0.000
-74,0.000
-73,0.000
-72,0.000
-71,0.000
-70,0.000
-69,0.000
-68,0.000
-67,0.000
-66,0.000
-65,0.000
-64,0.000
-63,0.000
-62,0.000
-61,0.000
-60,0.000
-59,0.000
-58,0.000
-57,0.000
-56,0.000
-55,0.000
-54,0.000
-53,0.000
-52,0.000
-51,0.000
-50,0.000
-49,0.000
-48,0.000
-47,0.000
-46,0.000
-45,0.000
-44,0.000
-43,0.000
-42,0.000
-41,0.000
-40,0.000
-39,0.000
-38,0.000
-37,0.000
-36,0.000
-35,0.000
-34,0.000
-33,0.000
-32,0.000
-31,0.000
-30,0.000
-29,0.000
-28,0.000
-27,0.000
-26,0.000
-25,0.000
-24,0.000
-23,0.000
-22,0.000
-21,0.000
-20,0.000
-19,0.000
-18,0.000
-17,0.000
-16,0.000
-15,0.000
-14,0.000
-13,0.000
-12,0.000
-11,0.000
-10,0.000
-9,0.000
-8,0.000
-7,0.000
-6,0.000
-5,0.000
-4,0.000
-3,0.000
-2,0.000
-1,0.000
0,0.000
1,0.000
2,0.000
3,0.000
4,0.000
5,0.000
6,0.000
7,0.000
8,0.000
9,0.000
10,0.000
11,0.000
12,0.000
13,0.000
14,0.000
15,0.000
16,0.000
17,0.000
18,0.000
19,0.000
20,0.000
21,0.000
22,0.000
23,0.000
24,0.000
25,0.000
26,0.000
27,0.000
28,0.000
29,0.000
30,0.000
31,0.000
32,0.000
33,0.000
34,0.000
35,0.000
36,0.000
37,0.000
38,0.000
39,0.000
40,0.000
41,0.000
42,0.000
43,0.000
44,0.000
45,0.000
46,0.000
47,0.000
48,0.000
49,0.000
50,0.000
51,0.000
52,0.000
53,0.000
54,0.000
55,0.000
56,0.000
57,0.000
58,0.000
59,0.000
60,0.000
61,0.000
62,0.000
63,0.000
64,0.000
65,0.000
66,0.000
67,0.000
68,0.000
69,0.000
70,0.000
71,0.000
72,0.000
73,0.000
74,0.000
75,0.000
76,0.000
77,0.000
78,0.000
79,0.000
80,0.000
81,0.000
82,0.000
83,0.000
84,0.000
85,0.000
86,0.000
87,0.000
88,0.000
89,0.000
90,0.000
91,0.000
92,0.000
93,0.000
94,0.000
95,0.000
96,0.000
97,0.000
98,0.000
99,0.000
100,0.000
101,0.000
102,0.000
103,0.000
104,0.000
105,0.000
106,0.000
107,0.000
108,0.000
109,0.000
110,0.000
111,0.000
112,0.000
113,0.000
114,0.000
115,0.000
116,0.000
117,0.000
118,0.000
119,0.000
120,0.000
121,0.000
122,0.000
123,0.000
124,0.000
125,0.000
126,0.000
127,0.000
128,0.000
129,0.000
130,0.000
131,0.000
132,0.000
133,0.000
134,0.000
135,0.000
136,0.000
137,0.000
138,0.000
139,0.000
140,0.000
141,0.000
142,0.000
143,0.000
144,0.000
145,0.000
146,0.000
147,0.000
148,0.000
149,0.000
150,0.000
151,0.000
152,0.000
153,0.000
154,0.000
155,0.000
156,0.000
157,0.000
158,0.000
159,0.000
160,0.000
161,0.000
162,0.000
163,0.000
164,0.000
165,0.000
166,0.000
167,0.000
168,0.000
169,0.000
170,0.000
171,0.000
172,0.000
173,0.000
174,0.000
175,0.000
176,0.000
177,0.000
178,0.000
179,0.000
180,0.000
ENDFIL:,EOF
