REVNUM:,TIA/EIA-804-B
COMNT1:,Standard TIA/EIA  Antenna Pattern Data
COMNT2:,Standard Gain is nominal
ANTMAN:,Amphenol Procom
MODNUM:,S.1-145
DESCR1:,Centre Fed Dipole
DESCR2:,
DTDATA:,20210414
LOWFRQ:,135.00
HGHFRQ:,155.00
GUNITS:,DBD/DBR
MDGAIN:,0.01
AZWIDT:,360.00
ELWIDT:,77.50
CONTYP:,
ATVSWR:,
FRTOBA:,0.00
ELTILT:,0.00
MAXPOW:,
ANTLEN:,
ANTWID:,
ANTWGT:,
PATTYP:,Typical
NOFREQ:,1
PATFRE:,155.00
NUMCUT:,2
PATCUT:,V
POLARI:,V/V
NUPOIN:,360
FSTLST:,-179,180
-179,0.000
-178,-0.010
-177,-0.020
-176,-0.030
-175,-0.050
-174,-0.070
-173,-0.100
-172,-0.130
-171,-0.160
-170,-0.200
-169,-0.240
-168,-0.280
-167,-0.330
-166,-0.390
-165,-0.440
-164,-0.500
-163,-0.570
-162,-0.640
-161,-0.710
-160,-0.790
-159,-0.870
-158,-0.950
-157,-1.040
-156,-1.130
-155,-1.230
-154,-1.330
-153,-1.430
-152,-1.540
-151,-1.660
-150,-1.770
-149,-1.900
-148,-2.020
-147,-2.150
-146,-2.290
-145,-2.420
-144,-2.570
-143,-2.710
-142,-2.870
-141,-3.020
-140,-3.190
-139,-3.350
-138,-3.520
-137,-3.700
-136,-3.880
-135,-4.070
-134,-4.260
-133,-4.460
-132,-4.660
-131,-4.870
-130,-5.080
-129,-5.300
-128,-5.530
-127,-5.760
-126,-6.000
-125,-6.250
-124,-6.510
-123,-6.770
-122,-7.050
-121,-7.330
-120,-7.620
-119,-7.920
-118,-8.230
-117,-8.550
-116,-8.890
-115,-9.230
-114,-9.600
-113,-9.970
-112,-10.370
-111,-10.780
-110,-11.210
-109,-11.660
-108,-12.140
-107,-12.640
-106,-13.170
-105,-13.740
-104,-14.350
-103,-14.990
-102,-15.700
-101,-16.460
-100,-17.290
-99,-18.210
-98,-19.230
-97,-20.400
-96,-21.740
-95,-23.330
-94,-25.270
-93,-27.770
-92,-31.290
-91,-37.310
-90,-57.160
-89,-37.310
-88,-31.290
-87,-27.770
-86,-25.270
-85,-23.330
-84,-21.740
-83,-20.400
-82,-19.230
-81,-18.210
-80,-17.290
-79,-16.460
-78,-15.700
-77,-14.990
-76,-14.350
-75,-13.740
-74,-13.170
-73,-12.640
-72,-12.140
-71,-11.660
-70,-11.210
-69,-10.780
-68,-10.370
-67,-9.970
-66,-9.600
-65,-9.230
-64,-8.890
-63,-8.550
-62,-8.230
-61,-7.920
-60,-7.620
-59,-7.330
-58,-7.050
-57,-6.770
-56,-6.510
-55,-6.250
-54,-6.000
-53,-5.760
-52,-5.530
-51,-5.300
-50,-5.080
-49,-4.870
-48,-4.660
-47,-4.460
-46,-4.260
-45,-4.070
-44,-3.880
-43,-3.700
-42,-3.520
-41,-3.350
-40,-3.190
-39,-3.020
-38,-2.870
-37,-2.710
-36,-2.570
-35,-2.420
-34,-2.290
-33,-2.150
-32,-2.020
-31,-1.900
-30,-1.770
-29,-1.660
-28,-1.540
-27,-1.430
-26,-1.330
-25,-1.230
-24,-1.130
-23,-1.040
-22,-0.950
-21,-0.870
-20,-0.790
-19,-0.710
-18,-0.640
-17,-0.570
-16,-0.500
-15,-0.440
-14,-0.390
-13,-0.330
-12,-0.280
-11,-0.240
-10,-0.200
-9,-0.160
-8,-0.130
-7,-0.100
-6,-0.070
-5,-0.050
-4,-0.030
-3,-0.020
-2,-0.010
-1,0.000
0,0.000
1,0.000
2,-0.010
3,-0.020
4,-0.030
5,-0.050
6,-0.070
7,-0.100
8,-0.130
9,-0.160
10,-0.200
11,-0.240
12,-0.280
13,-0.330
14,-0.390
15,-0.440
16,-0.500
17,-0.570
18,-0.640
19,-0.710
20,-0.790
21,-0.870
22,-0.950
23,-1.040
24,-1.130
25,-1.230
26,-1.330
27,-1.430
28,-1.540
29,-1.660
30,-1.770
31,-1.900
32,-2.020
33,-2.150
34,-2.290
35,-2.420
36,-2.570
37,-2.710
38,-2.870
39,-3.020
40,-3.190
41,-3.350
42,-3.520
43,-3.700
44,-3.880
45,-4.070
46,-4.260
47,-4.460
48,-4.660
49,-4.870
50,-5.080
51,-5.300
52,-5.530
53,-5.760
54,-6.000
55,-6.250
56,-6.510
57,-6.770
58,-7.050
59,-7.330
60,-7.620
61,-7.920
62,-8.230
63,-8.550
64,-8.890
65,-9.230
66,-9.600
67,-9.970
68,-10.370
69,-10.780
70,-11.210
71,-11.660
72,-12.140
73,-12.640
74,-13.170
75,-13.740
76,-14.350
77,-14.990
78,-15.700
79,-16.460
80,-17.290
81,-18.210
82,-19.230
83,-20.400
84,-21.740
85,-23.330
86,-25.270
87,-27.770
88,-31.290
89,-37.310
90,-57.160
91,-37.310
92,-31.290
93,-27.770
94,-25.270
95,-23.330
96,-21.740
97,-20.400
98,-19.230
99,-18.210
100,-17.290
101,-16.460
102,-15.700
103,-14.990
104,-14.350
105,-13.740
106,-13.170
107,-12.640
108,-12.140
109,-11.660
110,-11.210
111,-10.780
112,-10.370
113,-9.970
114,-9.600
115,-9.230
116,-8.890
117,-8.550
118,-8.230
119,-7.920
120,-7.620
121,-7.330
122,-7.050
123,-6.770
124,-6.510
125,-6.250
126,-6.000
127,-5.760
128,-5.530
129,-5.300
130,-5.080
131,-4.870
132,-4.660
133,-4.460
134,-4.260
135,-4.070
136,-3.880
137,-3.700
138,-3.520
139,-3.350
140,-3.190
141,-3.020
142,-2.870
143,-2.710
144,-2.570
145,-2.420
146,-2.290
147,-2.150
148,-2.020
149,-1.900
150,-1.770
151,-1.660
152,-1.540
153,-1.430
154,-1.330
155,-1.230
156,-1.130
157,-1.040
158,-0.950
159,-0.870
160,-0.790
161,-0.710
162,-0.640
163,-0.570
164,-0.500
165,-0.440
166,-0.390
167,-0.330
168,-0.280
169,-0.240
170,-0.200
171,-0.160
172,-0.130
173,-0.100
174,-0.070
175,-0.050
176,-0.030
177,-0.020
178,-0.010
179,0.000
180,0.000
PATCUT:,H
POLARI:,V/V
NUPOIN:,360
FSTLST:,-179,180
-179,0.000
-178,0.000
-177,0.000
-176,0.000
-175,0.000
-174,0.000
-173,0.000
-172,0.000
-171,0.000
-170,0.000
-169,0.000
-168,0.000
-167,0.000
-166,0.000
-165,0.000
-164,0.000
-163,0.000
-162,0.000
-161,0.000
-160,0.000
-159,0.000
-158,0.000
-157,0.000
-156,0.000
-155,0.000
-154,0.000
-153,0.000
-152,0.000
-151,0.000
-150,0.000
-149,0.000
-148,0.000
-147,0.000
-146,0.000
-145,0.000
-144,0.000
-143,0.000
-142,0.000
-141,0.000
-140,0.000
-139,0.000
-138,0.000
-137,0.000
-136,0.000
-135,0.000
-134,0.000
-133,0.000
-132,0.000
-131,0.000
-130,0.000
-129,0.000
-128,0.000
-127,0.000
-126,0.000
-125,0.000
-124,0.000
-123,0.000
-122,0.000
-121,0.000
-120,0.000
-119,0.000
-118,0.000
-117,0.000
-116,0.000
-115,0.000
-114,0.000
-113,0.000
-112,0.000
-111,0.000
-110,0.000
-109,0.000
-108,0.000
-107,0.000
-106,0.000
-105,0.000
-104,0.000
-103,0.000
-102,0.000
-101,0.000
-100,0.000
-99,0.000
-98,0.000
-97,0.000
-96,0.000
-95,0.000
-94,0.000
-93,0.000
-92,0.000
-91,0.000
-90,0.000
-89,0.000
-88,0.000
-87,0.000
-86,0.000
-85,0.000
-84,0.000
-83,0.000
-82,0.000
-81,0.000
-80,0.000
-79,0.000
-78,0.000
-77,0.000
-76,0.000
-75,0.000
-74,0.000
-73,0.000
-72,0.000
-71,0.000
-70,0.000
-69,0.000
-68,0.000
-67,0.000
-66,0.000
-65,0.000
-64,0.000
-63,0.000
-62,0.000
-61,0.000
-60,0.000
-59,0.000
-58,0.000
-57,0.000
-56,0.000
-55,0.000
-54,0.000
-53,0.000
-52,0.000
-51,0.000
-50,0.000
-49,0.000
-48,0.000
-47,0.000
-46,0.000
-45,0.000
-44,0.000
-43,0.000
-42,0.000
-41,0.000
-40,0.000
-39,0.000
-38,0.000
-37,0.000
-36,0.000
-35,0.000
-34,0.000
-33,0.000
-32,0.000
-31,0.000
-30,0.000
-29,0.000
-28,0.000
-27,0.000
-26,0.000
-25,0.000
-24,0.000
-23,0.000
-22,0.000
-21,0.000
-20,0.000
-19,0.000
-18,0.000
-17,0.000
-16,0.000
-15,0.000
-14,0.000
-13,0.000
-12,0.000
-11,0.000
-10,0.000
-9,0.000
-8,0.000
-7,0.000
-6,0.000
-5,0.000
-4,0.000
-3,0.000
-2,0.000
-1,0.000
0,0.000
1,0.000
2,0.000
3,0.000
4,0.000
5,0.000
6,0.000
7,0.000
8,0.000
9,0.000
10,0.000
11,0.000
12,0.000
13,0.000
14,0.000
15,0.000
16,0.000
17,0.000
18,0.000
19,0.000
20,0.000
21,0.000
22,0.000
23,0.000
24,0.000
25,0.000
26,0.000
27,0.000
28,0.000
29,0.000
30,0.000
31,0.000
32,0.000
33,0.000
34,0.000
35,0.000
36,0.000
37,0.000
38,0.000
39,0.000
40,0.000
41,0.000
42,0.000
43,0.000
44,0.000
45,0.000
46,0.000
47,0.000
48,0.000
49,0.000
50,0.000
51,0.000
52,0.000
53,0.000
54,0.000
55,0.000
56,0.000
57,0.000
58,0.000
59,0.000
60,0.000
61,0.000
62,0.000
63,0.000
64,0.000
65,0.000
66,0.000
67,0.000
68,0.000
69,0.000
70,0.000
71,0.000
72,0.000
73,0.000
74,0.000
75,0.000
76,0.000
77,0.000
78,0.000
79,0.000
80,0.000
81,0.000
82,0.000
83,0.000
84,0.000
85,0.000
86,0.000
87,0.000
88,0.000
89,0.000
90,0.000
91,0.000
92,0.000
93,0.000
94,0.000
95,0.000
96,0.000
97,0.000
98,0.000
99,0.000
100,0.000
101,0.000
102,0.000
103,0.000
104,0.000
105,0.000
106,0.000
107,0.000
108,0.000
109,0.000
110,0.000
111,0.000
112,0.000
113,0.000
114,0.000
115,0.000
116,0.000
117,0.000
118,0.000
119,0.000
120,0.000
121,0.000
122,0.000
123,0.000
124,0.000
125,0.000
126,0.000
127,0.000
128,0.000
129,0.000
130,0.000
131,0.000
132,0.000
133,0.000
134,0.000
135,0.000
136,0.000
137,0.000
138,0.000
139,0.000
140,0.000
141,0.000
142,0.000
143,0.000
144,0.000
145,0.000
146,0.000
147,0.000
148,0.000
149,0.000
150,0.000
151,0.000
152,0.000
153,0.000
154,0.000
155,0.000
156,0.000
157,0.000
158,0.000
159,0.000
160,0.000
161,0.000
162,0.000
163,0.000
164,0.000
165,0.000
166,0.000
167,0.000
168,0.000
169,0.000
170,0.000
171,0.000
172,0.000
173,0.000
174,0.000
175,0.000
176,0.000
177,0.000
178,0.000
179,0.000
180,0.000
ENDFIL:,EOF
