REVNUM:1.0, 
ANTMAN:,Sinclair Technologies Inc. 
MODNUM:,SD235-SF2PALDF(D00)_BiDiT
DTDATA:,19911709
LOWFRQ:,138
HGHFRQ:,174
GUNITS:,DBD/DBR
MDGAIN:,5.5
AZWIDT:,31.5
CONTYP:,N
ATVSWR:,1.5 
FRTOBA:,0,0
ELTILT:,0,1
PATTYP:,typical
NOFREQ:,1
PATFRE:,150
NUMCUT:,2
PATCUT:,H
POLARI:,V/V
NUPOIN:,360
FSTLST:,-180.000,+179.000
-180.000,0.000,
-179.000,0.000,
-178.000,-0.040,
-177.000,-0.120,
-176.000,-0.200,
-175.000,-0.330,
-174.000,-0.470,
-173.000,-0.640,
-172.000,-0.830,
-171.000,-1.040,
-170.000,-1.290,
-169.000,-1.560,
-168.000,-1.850,
-167.000,-2.170,
-166.000,-2.510,
-165.000,-2.900,
-164.000,-3.300,
-163.000,-3.760,
-162.000,-4.270,
-161.000,-4.850,
-160.000,-5.480,
-159.000,-6.160,
-158.000,-6.900,
-157.000,-7.660,
-156.000,-8.480,
-155.000,-9.320,
-154.000,-10.230,
-153.000,-11.230,
-152.000,-12.390,
-151.000,-13.680,
-150.000,-15.100,
-149.000,-16.580,
-148.000,-17.930,
-147.000,-19.000,
-146.000,-19.550,
-145.000,-19.550,
-144.000,-19.010,
-143.000,-18.080,
-142.000,-16.930,
-141.000,-15.730,
-140.000,-14.590,
-139.000,-13.550,
-138.000,-12.660,
-137.000,-11.910,
-136.000,-11.290,
-135.000,-10.750,
-134.000,-10.270,
-133.000,-9.870,
-132.000,-9.500,
-131.000,-9.180,
-130.000,-8.900,
-129.000,-8.640,
-128.000,-8.410,
-127.000,-8.210,
-126.000,-8.020,
-125.000,-7.870,
-124.000,-7.740,
-123.000,-7.640,
-122.000,-7.580,
-121.000,-7.540,
-120.000,-7.540,
-119.000,-7.580,
-118.000,-7.640,
-117.000,-7.740,
-116.000,-7.890,
-115.000,-8.060,
-114.000,-8.250,
-113.000,-8.470,
-112.000,-8.680,
-111.000,-8.920,
-110.000,-9.160,
-109.000,-9.430,
-108.000,-9.720,
-107.000,-10.040,
-106.000,-10.390,
-105.000,-10.770,
-104.000,-11.180,
-103.000,-11.660,
-102.000,-12.180,
-101.000,-12.750,
-100.000,-13.390,
-99.000,-14.090,
-98.000,-14.870,
-97.000,-15.680,
-96.000,-16.540,
-95.000,-17.410,
-94.000,-18.250,
-93.000,-19.020,
-92.000,-19.710,
-91.000,-20.270,
-90.000,-20.660,
-89.000,-20.790,
-88.000,-20.660,
-87.000,-20.260,
-86.000,-19.670,
-85.000,-18.920,
-84.000,-18.060,
-83.000,-17.170,
-82.000,-16.260,
-81.000,-15.380,
-80.000,-14.550,
-79.000,-13.770,
-78.000,-13.060,
-77.000,-12.430,
-76.000,-11.870,
-75.000,-11.370,
-74.000,-10.910,
-73.000,-10.500,
-72.000,-10.140,
-71.000,-9.800,
-70.000,-9.480,
-69.000,-9.200,
-68.000,-8.930,
-67.000,-8.690,
-66.000,-8.470,
-65.000,-8.280,
-64.000,-8.140,
-63.000,-8.000,
-62.000,-7.890,
-61.000,-7.790,
-60.000,-7.730,
-59.000,-7.710,
-58.000,-7.700,
-57.000,-7.730,
-56.000,-7.770,
-55.000,-7.850,
-54.000,-7.960,
-53.000,-8.080,
-52.000,-8.240,
-51.000,-8.430,
-50.000,-8.650,
-49.000,-8.890,
-48.000,-9.160,
-47.000,-9.460,
-46.000,-9.790,
-45.000,-10.180,
-44.000,-10.620,
-43.000,-11.140,
-42.000,-11.730,
-41.000,-12.370,
-40.000,-13.020,
-39.000,-13.670,
-38.000,-14.180,
-37.000,-14.510,
-36.000,-14.580,
-35.000,-14.390,
-34.000,-13.980,
-33.000,-13.390,
-32.000,-12.700,
-31.000,-11.950,
-30.000,-11.200,
-29.000,-10.470,
-28.000,-9.750,
-27.000,-9.080,
-26.000,-8.440,
-25.000,-7.810,
-24.000,-7.180,
-23.000,-6.530,
-22.000,-5.910,
-21.000,-5.280,
-20.000,-4.690,
-19.000,-4.120,
-18.000,-3.600,
-17.000,-3.130,
-16.000,-2.690,
-15.000,-2.280,
-14.000,-1.930,
-13.000,-1.620,
-12.000,-1.330,
-11.000,-1.080,
-10.000,-0.870,
-9.000,-0.680,
-8.000,-0.520,
-7.000,-0.370,
-6.000,-0.250,
-5.000,-0.160,
-4.000,-0.100,
-3.000,-0.060,
-2.000,-0.040,
-1.000,-0.040,
0.000,-0.060,
1.000,-0.100,
2.000,-0.160,
3.000,-0.250,
4.000,-0.350,
5.000,-0.480,
6.000,-0.640,
7.000,-0.830,
8.000,-1.040,
9.000,-1.270,
10.000,-1.520,
11.000,-1.830,
12.000,-2.200,
13.000,-2.590,
14.000,-3.030,
15.000,-3.510,
16.000,-4.030,
17.000,-4.610,
18.000,-5.240,
19.000,-5.920,
20.000,-6.590,
21.000,-7.270,
22.000,-7.980,
23.000,-8.720,
24.000,-9.500,
25.000,-10.370,
26.000,-11.330,
27.000,-12.410,
28.000,-13.590,
29.000,-14.800,
30.000,-16.010,
31.000,-17.120,
32.000,-18.040,
33.000,-18.710,
34.000,-19.100,
35.000,-19.160,
36.000,-18.880,
37.000,-18.340,
38.000,-17.590,
39.000,-16.720,
40.000,-15.800,
41.000,-14.880,
42.000,-14.020,
43.000,-13.250,
44.000,-12.560,
45.000,-11.970,
46.000,-11.450,
47.000,-11.000,
48.000,-10.620,
49.000,-10.270,
50.000,-9.960,
51.000,-9.680,
52.000,-9.440,
53.000,-9.220,
54.000,-9.020,
55.000,-8.850,
56.000,-8.720,
57.000,-8.590,
58.000,-8.480,
59.000,-8.420,
60.000,-8.350,
61.000,-8.330,
62.000,-8.340,
63.000,-8.390,
64.000,-8.450,
65.000,-8.530,
66.000,-8.660,
67.000,-8.790,
68.000,-8.980,
69.000,-9.190,
70.000,-9.440,
71.000,-9.720,
72.000,-10.020,
73.000,-10.370,
74.000,-10.730,
75.000,-11.160,
76.000,-11.660,
77.000,-12.270,
78.000,-13.000,
79.000,-13.880,
80.000,-14.920,
81.000,-16.050,
82.000,-17.270,
83.000,-18.540,
84.000,-19.800,
85.000,-21.050,
86.000,-22.210,
87.000,-23.270,
88.000,-24.060,
89.000,-24.520,
90.000,-24.610,
91.000,-24.440,
92.000,-24.100,
93.000,-23.680,
94.000,-23.200,
95.000,-22.720,
96.000,-22.210,
97.000,-21.620,
98.000,-20.890,
99.000,-19.960,
100.000,-18.880,
101.000,-17.770,
102.000,-16.730,
103.000,-15.790,
104.000,-14.960,
105.000,-14.210,
106.000,-13.540,
107.000,-12.970,
108.000,-12.450,
109.000,-12.020,
110.000,-11.640,
111.000,-11.330,
112.000,-11.080,
113.000,-10.850,
114.000,-10.680,
115.000,-10.540,
116.000,-10.430,
117.000,-10.350,
118.000,-10.310,
119.000,-10.290,
120.000,-10.290,
121.000,-10.330,
122.000,-10.410,
123.000,-10.520,
124.000,-10.640,
125.000,-10.810,
126.000,-10.980,
127.000,-11.220,
128.000,-11.480,
129.000,-11.790,
130.000,-12.160,
131.000,-12.600,
132.000,-13.120,
133.000,-13.730,
134.000,-14.460,
135.000,-15.270,
136.000,-16.180,
137.000,-17.170,
138.000,-18.170,
139.000,-19.130,
140.000,-19.960,
141.000,-20.540,
142.000,-20.760,
143.000,-20.600,
144.000,-20.050,
145.000,-19.170,
146.000,-18.050,
147.000,-16.770,
148.000,-15.470,
149.000,-14.220,
150.000,-13.060,
151.000,-12.020,
152.000,-11.080,
153.000,-10.200,
154.000,-9.390,
155.000,-8.580,
156.000,-7.790,
157.000,-7.030,
158.000,-6.300,
159.000,-5.610,
160.000,-4.970,
161.000,-4.380,
162.000,-3.870,
163.000,-3.410,
164.000,-2.990,
165.000,-2.600,
166.000,-2.260,
167.000,-1.950,
168.000,-1.660,
169.000,-1.390,
170.000,-1.140,
171.000,-0.910,
172.000,-0.720,
173.000,-0.540,
174.000,-0.390,
175.000,-0.250,
176.000,-0.160,
177.000,-0.080,
178.000,-0.040,
179.000,0.000,
PATCUT:,V
POLARI:,V/V
NUPOIN:,360
FSTLST:,-180.000,+179.000
-180.000,-0.410,
-179.000,-0.390,
-178.000,-0.390,
-177.000,-0.430,
-176.000,-0.430,
-175.000,-0.450,
-174.000,-0.450,
-173.000,-0.480,
-172.000,-0.540,
-171.000,-0.620,
-170.000,-0.680,
-169.000,-0.750,
-168.000,-0.830,
-167.000,-0.890,
-166.000,-0.950,
-165.000,-1.000,
-164.000,-1.060,
-163.000,-1.120,
-162.000,-1.200,
-161.000,-1.270,
-160.000,-1.370,
-159.000,-1.470,
-158.000,-1.540,
-157.000,-1.640,
-156.000,-1.730,
-155.000,-1.830,
-154.000,-1.930,
-153.000,-2.030,
-152.000,-2.170,
-151.000,-2.290,
-150.000,-2.440,
-149.000,-2.550,
-148.000,-2.690,
-147.000,-2.780,
-146.000,-2.910,
-145.000,-3.000,
-144.000,-3.100,
-143.000,-3.230,
-142.000,-3.330,
-141.000,-3.480,
-140.000,-3.600,
-139.000,-3.750,
-138.000,-3.920,
-137.000,-4.040,
-136.000,-4.200,
-135.000,-4.340,
-134.000,-4.480,
-133.000,-4.610,
-132.000,-4.740,
-131.000,-4.880,
-130.000,-5.040,
-129.000,-5.170,
-128.000,-5.300,
-127.000,-5.490,
-126.000,-5.680,
-125.000,-5.890,
-124.000,-6.060,
-123.000,-6.230,
-122.000,-6.420,
-121.000,-6.610,
-120.000,-6.800,
-119.000,-6.980,
-118.000,-7.150,
-117.000,-7.330,
-116.000,-7.480,
-115.000,-7.640,
-114.000,-7.850,
-113.000,-8.040,
-112.000,-8.230,
-111.000,-8.400,
-110.000,-8.500,
-109.000,-8.600,
-108.000,-8.710,
-107.000,-8.780,
-106.000,-8.890,
-105.000,-8.960,
-104.000,-9.010,
-103.000,-9.090,
-102.000,-9.200,
-101.000,-9.270,
-100.000,-9.340,
-99.000,-9.420,
-98.000,-9.460,
-97.000,-9.480,
-96.000,-9.500,
-95.000,-9.500,
-94.000,-9.540,
-93.000,-9.590,
-92.000,-9.660,
-91.000,-9.680,
-90.000,-9.700,
-89.000,-9.680,
-88.000,-9.680,
-87.000,-9.660,
-86.000,-9.640,
-85.000,-9.640,
-84.000,-9.640,
-83.000,-9.640,
-82.000,-9.640,
-81.000,-9.590,
-80.000,-9.550,
-79.000,-9.500,
-78.000,-9.460,
-77.000,-9.400,
-76.000,-9.320,
-75.000,-9.270,
-74.000,-9.230,
-73.000,-9.190,
-72.000,-9.090,
-71.000,-8.990,
-70.000,-8.880,
-69.000,-8.730,
-68.000,-8.550,
-67.000,-8.350,
-66.000,-8.140,
-65.000,-7.910,
-64.000,-7.720,
-63.000,-7.510,
-62.000,-7.320,
-61.000,-7.100,
-60.000,-6.860,
-59.000,-6.670,
-58.000,-6.430,
-57.000,-6.230,
-56.000,-6.050,
-55.000,-5.830,
-54.000,-5.610,
-53.000,-5.420,
-52.000,-5.230,
-51.000,-5.060,
-50.000,-4.940,
-49.000,-4.770,
-48.000,-4.620,
-47.000,-4.480,
-46.000,-4.330,
-45.000,-4.150,
-44.000,-4.000,
-43.000,-3.850,
-42.000,-3.700,
-41.000,-3.520,
-40.000,-3.350,
-39.000,-3.210,
-38.000,-3.040,
-37.000,-2.920,
-36.000,-2.780,
-35.000,-2.690,
-34.000,-2.550,
-33.000,-2.450,
-32.000,-2.310,
-31.000,-2.210,
-30.000,-2.070,
-29.000,-1.950,
-28.000,-1.830,
-27.000,-1.700,
-26.000,-1.580,
-25.000,-1.450,
-24.000,-1.330,
-23.000,-1.220,
-22.000,-1.100,
-21.000,-1.000,
-20.000,-0.890,
-19.000,-0.790,
-18.000,-0.700,
-17.000,-0.640,
-16.000,-0.580,
-15.000,-0.520,
-14.000,-0.470,
-13.000,-0.410,
-12.000,-0.350,
-11.000,-0.290,
-10.000,-0.230,
-9.000,-0.180,
-8.000,-0.120,
-7.000,-0.060,
-6.000,-0.020,
-5.000,-0.020,
-4.000,-0.020,
-3.000,0.000,
-2.000,0.000,
-1.000,0.000,
0.000,0.000,
1.000,-0.020,
2.000,-0.040,
3.000,-0.080,
4.000,-0.120,
5.000,-0.200,
6.000,-0.250,
7.000,-0.290,
8.000,-0.350,
9.000,-0.390,
10.000,-0.450,
11.000,-0.500,
12.000,-0.560,
13.000,-0.620,
14.000,-0.680,
15.000,-0.730,
16.000,-0.810,
17.000,-0.890,
18.000,-1.000,
19.000,-1.100,
20.000,-1.200,
21.000,-1.310,
22.000,-1.430,
23.000,-1.540,
24.000,-1.660,
25.000,-1.770,
26.000,-1.890,
27.000,-1.990,
28.000,-2.130,
29.000,-2.240,
30.000,-2.390,
31.000,-2.490,
32.000,-2.630,
33.000,-2.730,
34.000,-2.880,
35.000,-3.010,
36.000,-3.170,
37.000,-3.290,
38.000,-3.450,
39.000,-3.570,
40.000,-3.730,
41.000,-3.880,
42.000,-4.010,
43.000,-4.160,
44.000,-4.320,
45.000,-4.460,
46.000,-4.600,
47.000,-4.730,
48.000,-4.860,
49.000,-4.980,
50.000,-5.120,
51.000,-5.290,
52.000,-5.440,
53.000,-5.610,
54.000,-5.800,
55.000,-5.980,
56.000,-6.140,
57.000,-6.340,
58.000,-6.530,
59.000,-6.720,
60.000,-6.860,
61.000,-7.000,
62.000,-7.150,
63.000,-7.330,
64.000,-7.470,
65.000,-7.620,
66.000,-7.750,
67.000,-7.940,
68.000,-8.080,
69.000,-8.220,
70.000,-8.280,
71.000,-8.350,
72.000,-8.430,
73.000,-8.490,
74.000,-8.580,
75.000,-8.690,
76.000,-8.760,
77.000,-8.820,
78.000,-8.880,
79.000,-8.900,
80.000,-8.930,
81.000,-8.950,
82.000,-8.970,
83.000,-8.970,
84.000,-8.980,
85.000,-8.980,
86.000,-9.010,
87.000,-9.020,
88.000,-8.990,
89.000,-8.980,
90.000,-8.970,
91.000,-8.980,
92.000,-8.990,
93.000,-9.010,
94.000,-9.000,
95.000,-8.980,
96.000,-8.980,
97.000,-8.980,
98.000,-8.980,
99.000,-8.980,
100.000,-8.970,
101.000,-8.940,
102.000,-8.910,
103.000,-8.840,
104.000,-8.790,
105.000,-8.730,
106.000,-8.680,
107.000,-8.600,
108.000,-8.540,
109.000,-8.480,
110.000,-8.440,
111.000,-8.330,
112.000,-8.230,
113.000,-8.080,
114.000,-7.960,
115.000,-7.830,
116.000,-7.710,
117.000,-7.540,
118.000,-7.380,
119.000,-7.230,
120.000,-7.080,
121.000,-6.930,
122.000,-6.780,
123.000,-6.630,
124.000,-6.480,
125.000,-6.340,
126.000,-6.140,
127.000,-5.930,
128.000,-5.730,
129.000,-5.550,
130.000,-5.360,
131.000,-5.230,
132.000,-5.100,
133.000,-4.980,
134.000,-4.850,
135.000,-4.720,
136.000,-4.570,
137.000,-4.440,
138.000,-4.280,
139.000,-4.140,
140.000,-4.000,
141.000,-3.880,
142.000,-3.730,
143.000,-3.590,
144.000,-3.470,
145.000,-3.320,
146.000,-3.200,
147.000,-3.040,
148.000,-2.940,
149.000,-2.800,
150.000,-2.690,
151.000,-2.530,
152.000,-2.420,
153.000,-2.280,
154.000,-2.200,
155.000,-2.070,
156.000,-1.970,
157.000,-1.870,
158.000,-1.770,
159.000,-1.680,
160.000,-1.580,
161.000,-1.500,
162.000,-1.410,
163.000,-1.330,
164.000,-1.270,
165.000,-1.200,
166.000,-1.140,
167.000,-1.100,
168.000,-1.040,
169.000,-0.970,
170.000,-0.910,
171.000,-0.850,
172.000,-0.810,
173.000,-0.750,
174.000,-0.700,
175.000,-0.620,
176.000,-0.540,
177.000,-0.500,
178.000,-0.450,
179.000,-0.430,
ENDFIL:,EOF
