REVNUM:1.0, 
ANTMAN:,Sinclair Technologies Inc. 
MODNUM:,SD214-SF2P2SNM(D00)
DTDATA:,19921303
LOWFRQ:,138
HGHFRQ:,138
GUNITS:,DBD/DBR
MDGAIN:,8,0.0
AZWIDT:,15.5
FRTOBA:,4.7,0
ELTILT:,0,1
PATTYP:,typical
NOFREQ:,1
PATFRE:,138
NUMCUT:,2
PATCUT:,V
POLARI:,V/V
NUPOIN:,360
FSTLST:,-180.000,+179.000
-180.000,-4.610,
-179.000,-4.620,
-178.000,-4.610,
-177.000,-4.710,
-176.000,-4.910,
-175.000,-5.220,
-174.000,-5.510,
-173.000,-5.920,
-172.000,-6.420,
-171.000,-6.980,
-170.000,-7.550,
-169.000,-8.290,
-168.000,-9.150,
-167.000,-10.120,
-166.000,-11.250,
-165.000,-12.610,
-164.000,-14.370,
-163.000,-16.520,
-162.000,-19.230,
-161.000,-22.310,
-160.000,-25.490,
-159.000,-26.960,
-158.000,-25.260,
-157.000,-22.450,
-156.000,-20.250,
-155.000,-18.490,
-154.000,-17.120,
-153.000,-16.110,
-152.000,-15.370,
-151.000,-14.900,
-150.000,-14.490,
-149.000,-14.260,
-148.000,-14.250,
-147.000,-14.270,
-146.000,-14.440,
-145.000,-14.790,
-144.000,-15.280,
-143.000,-15.820,
-142.000,-16.580,
-141.000,-17.460,
-140.000,-18.310,
-139.000,-19.360,
-138.000,-20.750,
-137.000,-22.520,
-136.000,-24.900,
-135.000,-28.240,
-134.000,-29.850,
-133.000,-29.220,
-132.000,-27.040,
-131.000,-25.540,
-130.000,-24.960,
-129.000,-24.840,
-128.000,-24.840,
-127.000,-25.020,
-126.000,-25.270,
-125.000,-25.500,
-124.000,-25.690,
-123.000,-25.870,
-122.000,-25.990,
-121.000,-26.140,
-120.000,-26.450,
-119.000,-26.830,
-118.000,-27.210,
-117.000,-27.700,
-116.000,-28.250,
-115.000,-28.760,
-114.000,-29.070,
-113.000,-29.010,
-112.000,-28.790,
-111.000,-28.460,
-110.000,-28.040,
-109.000,-27.670,
-108.000,-27.370,
-107.000,-27.210,
-106.000,-27.030,
-105.000,-26.860,
-104.000,-26.660,
-103.000,-26.490,
-102.000,-26.540,
-101.000,-26.660,
-100.000,-26.720,
-99.000,-26.830,
-98.000,-27.120,
-97.000,-27.320,
-96.000,-27.530,
-95.000,-27.940,
-94.000,-28.350,
-93.000,-28.720,
-92.000,-29.110,
-91.000,-29.610,
-90.000,-30.330,
-89.000,-31.300,
-88.000,-32.470,
-87.000,-32.830,
-86.000,-32.740,
-85.000,-32.540,
-84.000,-32.260,
-83.000,-31.680,
-82.000,-30.110,
-81.000,-28.520,
-80.000,-27.320,
-79.000,-26.480,
-78.000,-25.750,
-77.000,-24.920,
-76.000,-24.150,
-75.000,-23.520,
-74.000,-22.950,
-73.000,-22.530,
-72.000,-22.120,
-71.000,-21.720,
-70.000,-21.430,
-69.000,-21.180,
-68.000,-21.020,
-67.000,-20.880,
-66.000,-20.770,
-65.000,-20.790,
-64.000,-20.850,
-63.000,-21.110,
-62.000,-21.500,
-61.000,-21.970,
-60.000,-22.590,
-59.000,-23.320,
-58.000,-23.990,
-57.000,-24.290,
-56.000,-23.920,
-55.000,-22.950,
-54.000,-21.760,
-53.000,-20.780,
-52.000,-20.110,
-51.000,-19.670,
-50.000,-19.410,
-49.000,-19.260,
-48.000,-19.160,
-47.000,-18.950,
-46.000,-18.590,
-45.000,-18.080,
-44.000,-17.400,
-43.000,-16.700,
-42.000,-15.910,
-41.000,-15.120,
-40.000,-14.290,
-39.000,-13.530,
-38.000,-12.900,
-37.000,-12.390,
-36.000,-12.060,
-35.000,-11.710,
-34.000,-11.410,
-33.000,-11.310,
-32.000,-11.270,
-31.000,-11.420,
-30.000,-11.700,
-29.000,-12.220,
-28.000,-13.030,
-27.000,-14.050,
-26.000,-15.280,
-25.000,-16.630,
-24.000,-17.920,
-23.000,-19.050,
-22.000,-19.740,
-21.000,-19.900,
-20.000,-19.070,
-19.000,-16.880,
-18.000,-14.300,
-17.000,-12.190,
-16.000,-10.460,
-15.000,-8.920,
-14.000,-7.550,
-13.000,-6.460,
-12.000,-5.480,
-11.000,-4.650,
-10.000,-3.980,
-9.000,-3.450,
-8.000,-3.020,
-7.000,-2.590,
-6.000,-2.210,
-5.000,-1.850,
-4.000,-1.500,
-3.000,-1.300,
-2.000,-1.170,
-1.000,-1.140,
0.000,-1.160,
1.000,-1.270,
2.000,-1.390,
3.000,-1.580,
4.000,-1.850,
5.000,-2.220,
6.000,-2.670,
7.000,-3.100,
8.000,-3.510,
9.000,-3.970,
10.000,-4.520,
11.000,-5.070,
12.000,-5.810,
13.000,-6.680,
14.000,-7.790,
15.000,-8.880,
16.000,-10.100,
17.000,-11.480,
18.000,-13.270,
19.000,-15.580,
20.000,-18.310,
21.000,-21.090,
22.000,-23.350,
23.000,-24.610,
24.000,-24.130,
25.000,-22.180,
26.000,-19.930,
27.000,-18.250,
28.000,-17.090,
29.000,-16.210,
30.000,-15.460,
31.000,-14.960,
32.000,-14.680,
33.000,-14.480,
34.000,-14.430,
35.000,-14.590,
36.000,-14.780,
37.000,-15.070,
38.000,-15.530,
39.000,-16.080,
40.000,-16.700,
41.000,-17.320,
42.000,-18.120,
43.000,-19.040,
44.000,-19.990,
45.000,-21.080,
46.000,-22.180,
47.000,-23.390,
48.000,-24.720,
49.000,-26.050,
50.000,-26.830,
51.000,-26.550,
52.000,-25.560,
53.000,-24.550,
54.000,-23.800,
55.000,-23.310,
56.000,-22.950,
57.000,-22.680,
58.000,-22.510,
59.000,-22.420,
60.000,-22.470,
61.000,-22.560,
62.000,-22.750,
63.000,-23.010,
64.000,-23.250,
65.000,-23.680,
66.000,-24.220,
67.000,-24.920,
68.000,-25.820,
69.000,-27.000,
70.000,-28.350,
71.000,-28.990,
72.000,-29.270,
73.000,-29.400,
74.000,-29.580,
75.000,-29.870,
76.000,-30.170,
77.000,-30.430,
78.000,-30.690,
79.000,-30.990,
80.000,-31.160,
81.000,-30.930,
82.000,-30.670,
83.000,-30.740,
84.000,-31.060,
85.000,-31.550,
86.000,-32.040,
87.000,-32.510,
88.000,-32.930,
89.000,-33.230,
90.000,-33.470,
91.000,-33.720,
92.000,-34.050,
93.000,-34.380,
94.000,-34.230,
95.000,-33.850,
96.000,-33.500,
97.000,-33.190,
98.000,-32.910,
99.000,-32.660,
100.000,-32.480,
101.000,-32.350,
102.000,-32.250,
103.000,-32.190,
104.000,-32.030,
105.000,-31.800,
106.000,-31.130,
107.000,-30.020,
108.000,-29.130,
109.000,-28.600,
110.000,-28.170,
111.000,-27.860,
112.000,-27.650,
113.000,-27.550,
114.000,-27.520,
115.000,-27.600,
116.000,-27.780,
117.000,-28.100,
118.000,-28.430,
119.000,-28.840,
120.000,-29.420,
121.000,-30.070,
122.000,-30.870,
123.000,-31.850,
124.000,-33.010,
125.000,-33.840,
126.000,-33.540,
127.000,-32.470,
128.000,-31.370,
129.000,-30.360,
130.000,-29.470,
131.000,-28.540,
132.000,-27.550,
133.000,-26.610,
134.000,-25.690,
135.000,-24.780,
136.000,-23.900,
137.000,-23.070,
138.000,-22.390,
139.000,-21.780,
140.000,-21.220,
141.000,-20.680,
142.000,-20.270,
143.000,-19.970,
144.000,-19.790,
145.000,-19.620,
146.000,-19.540,
147.000,-19.550,
148.000,-19.640,
149.000,-19.850,
150.000,-20.210,
151.000,-20.710,
152.000,-21.290,
153.000,-21.900,
154.000,-22.410,
155.000,-22.740,
156.000,-22.820,
157.000,-22.750,
158.000,-22.460,
159.000,-21.570,
160.000,-20.200,
161.000,-18.580,
162.000,-16.950,
163.000,-15.280,
164.000,-13.830,
165.000,-12.540,
166.000,-11.470,
167.000,-10.540,
168.000,-9.560,
169.000,-8.800,
170.000,-8.200,
171.000,-7.600,
172.000,-7.080,
173.000,-6.550,
174.000,-6.100,
175.000,-5.710,
176.000,-5.380,
177.000,-5.110,
178.000,-4.840,
179.000,-4.660,
PATCUT:,H
POLARI:,V/V
NUPOIN:,360
FSTLST:,-180.000,+179.000
-180.000,-4.510,
-179.000,-4.490,
-178.000,-4.490,
-177.000,-4.510,
-176.000,-4.500,
-175.000,-4.540,
-174.000,-4.570,
-173.000,-4.560,
-172.000,-4.520,
-171.000,-4.480,
-170.000,-4.430,
-169.000,-4.390,
-168.000,-4.350,
-167.000,-4.300,
-166.000,-4.270,
-165.000,-4.260,
-164.000,-4.250,
-163.000,-4.220,
-162.000,-4.220,
-161.000,-4.190,
-160.000,-4.150,
-159.000,-4.110,
-158.000,-4.070,
-157.000,-4.070,
-156.000,-4.040,
-155.000,-3.980,
-154.000,-3.990,
-153.000,-3.980,
-152.000,-3.920,
-151.000,-3.900,
-150.000,-3.900,
-149.000,-3.860,
-148.000,-3.800,
-147.000,-3.780,
-146.000,-3.730,
-145.000,-3.690,
-144.000,-3.640,
-143.000,-3.600,
-142.000,-3.540,
-141.000,-3.470,
-140.000,-3.410,
-139.000,-3.360,
-138.000,-3.270,
-137.000,-3.190,
-136.000,-3.120,
-135.000,-3.100,
-134.000,-3.060,
-133.000,-3.020,
-132.000,-2.970,
-131.000,-2.880,
-130.000,-2.790,
-129.000,-2.730,
-128.000,-2.660,
-127.000,-2.580,
-126.000,-2.510,
-125.000,-2.440,
-124.000,-2.400,
-123.000,-2.350,
-122.000,-2.290,
-121.000,-2.240,
-120.000,-2.180,
-119.000,-2.100,
-118.000,-2.040,
-117.000,-1.970,
-116.000,-1.880,
-115.000,-1.810,
-114.000,-1.750,
-113.000,-1.680,
-112.000,-1.600,
-111.000,-1.510,
-110.000,-1.420,
-109.000,-1.350,
-108.000,-1.300,
-107.000,-1.260,
-106.000,-1.190,
-105.000,-1.130,
-104.000,-1.070,
-103.000,-1.010,
-102.000,-0.940,
-101.000,-0.900,
-100.000,-0.880,
-99.000,-0.830,
-98.000,-0.750,
-97.000,-0.670,
-96.000,-0.600,
-95.000,-0.530,
-94.000,-0.490,
-93.000,-0.470,
-92.000,-0.410,
-91.000,-0.360,
-90.000,-0.340,
-89.000,-0.290,
-88.000,-0.230,
-87.000,-0.180,
-86.000,-0.140,
-85.000,-0.110,
-84.000,-0.090,
-83.000,-0.040,
-82.000,-0.020,
-81.000,-0.020,
-80.000,-0.020,
-79.000,-0.010,
-78.000,-0.020,
-77.000,-0.010,
-76.000,-0.030,
-75.000,-0.040,
-74.000,-0.070,
-73.000,-0.100,
-72.000,-0.100,
-71.000,-0.100,
-70.000,-0.080,
-69.000,-0.100,
-68.000,-0.110,
-67.000,-0.090,
-66.000,-0.070,
-65.000,-0.090,
-64.000,-0.130,
-63.000,-0.170,
-62.000,-0.200,
-61.000,-0.240,
-60.000,-0.280,
-59.000,-0.310,
-58.000,-0.370,
-57.000,-0.400,
-56.000,-0.430,
-55.000,-0.470,
-54.000,-0.500,
-53.000,-0.510,
-52.000,-0.530,
-51.000,-0.560,
-50.000,-0.600,
-49.000,-0.620,
-48.000,-0.640,
-47.000,-0.680,
-46.000,-0.730,
-45.000,-0.750,
-44.000,-0.790,
-43.000,-0.800,
-42.000,-0.810,
-41.000,-0.830,
-40.000,-0.860,
-39.000,-0.890,
-38.000,-0.940,
-37.000,-0.970,
-36.000,-0.970,
-35.000,-0.980,
-34.000,-1.000,
-33.000,-1.020,
-32.000,-1.040,
-31.000,-1.070,
-30.000,-1.090,
-29.000,-1.070,
-28.000,-1.060,
-27.000,-1.050,
-26.000,-1.050,
-25.000,-1.040,
-24.000,-1.030,
-23.000,-1.030,
-22.000,-1.050,
-21.000,-1.060,
-20.000,-1.070,
-19.000,-1.060,
-18.000,-1.060,
-17.000,-1.040,
-16.000,-1.040,
-15.000,-1.030,
-14.000,-1.050,
-13.000,-1.080,
-12.000,-1.100,
-11.000,-1.100,
-10.000,-1.100,
-9.000,-1.130,
-8.000,-1.150,
-7.000,-1.130,
-6.000,-1.140,
-5.000,-1.120,
-4.000,-1.110,
-3.000,-1.100,
-2.000,-1.080,
-1.000,-1.110,
0.000,-1.150,
1.000,-1.190,
2.000,-1.230,
3.000,-1.250,
4.000,-1.250,
5.000,-1.230,
6.000,-1.200,
7.000,-1.160,
8.000,-1.150,
9.000,-1.150,
10.000,-1.170,
11.000,-1.210,
12.000,-1.200,
13.000,-1.200,
14.000,-1.170,
15.000,-1.160,
16.000,-1.170,
17.000,-1.190,
18.000,-1.200,
19.000,-1.210,
20.000,-1.180,
21.000,-1.120,
22.000,-1.120,
23.000,-1.130,
24.000,-1.130,
25.000,-1.110,
26.000,-1.090,
27.000,-1.070,
28.000,-1.030,
29.000,-1.020,
30.000,-1.010,
31.000,-1.000,
32.000,-0.970,
33.000,-0.940,
34.000,-0.890,
35.000,-0.850,
36.000,-0.850,
37.000,-0.850,
38.000,-0.820,
39.000,-0.800,
40.000,-0.790,
41.000,-0.790,
42.000,-0.770,
43.000,-0.730,
44.000,-0.700,
45.000,-0.680,
46.000,-0.640,
47.000,-0.620,
48.000,-0.600,
49.000,-0.570,
50.000,-0.550,
51.000,-0.530,
52.000,-0.510,
53.000,-0.460,
54.000,-0.420,
55.000,-0.380,
56.000,-0.350,
57.000,-0.300,
58.000,-0.240,
59.000,-0.190,
60.000,-0.190,
61.000,-0.190,
62.000,-0.180,
63.000,-0.130,
64.000,-0.090,
65.000,-0.080,
66.000,-0.040,
67.000,-0.020,
68.000,-0.010,
69.000,-0.010,
70.000,-0.020,
71.000,-0.010,
72.000,-0.010,
73.000,-0.020,
74.000,-0.030,
75.000,-0.020,
76.000,-0.010,
77.000,0.000,
78.000,-0.020,
79.000,-0.050,
80.000,-0.090,
81.000,-0.090,
82.000,-0.090,
83.000,-0.100,
84.000,-0.140,
85.000,-0.180,
86.000,-0.220,
87.000,-0.220,
88.000,-0.240,
89.000,-0.280,
90.000,-0.330,
91.000,-0.380,
92.000,-0.420,
93.000,-0.480,
94.000,-0.540,
95.000,-0.610,
96.000,-0.690,
97.000,-0.720,
98.000,-0.800,
99.000,-0.850,
100.000,-0.930,
101.000,-1.000,
102.000,-1.060,
103.000,-1.080,
104.000,-1.130,
105.000,-1.170,
106.000,-1.260,
107.000,-1.320,
108.000,-1.390,
109.000,-1.470,
110.000,-1.540,
111.000,-1.610,
112.000,-1.690,
113.000,-1.760,
114.000,-1.830,
115.000,-1.930,
116.000,-1.990,
117.000,-2.040,
118.000,-2.150,
119.000,-2.210,
120.000,-2.280,
121.000,-2.340,
122.000,-2.420,
123.000,-2.490,
124.000,-2.570,
125.000,-2.670,
126.000,-2.770,
127.000,-2.870,
128.000,-2.930,
129.000,-2.970,
130.000,-3.050,
131.000,-3.150,
132.000,-3.240,
133.000,-3.280,
134.000,-3.320,
135.000,-3.390,
136.000,-3.480,
137.000,-3.560,
138.000,-3.600,
139.000,-3.640,
140.000,-3.680,
141.000,-3.740,
142.000,-3.830,
143.000,-3.900,
144.000,-3.940,
145.000,-4.010,
146.000,-4.040,
147.000,-4.060,
148.000,-4.080,
149.000,-4.140,
150.000,-4.180,
151.000,-4.240,
152.000,-4.300,
153.000,-4.310,
154.000,-4.330,
155.000,-4.340,
156.000,-4.370,
157.000,-4.410,
158.000,-4.450,
159.000,-4.440,
160.000,-4.460,
161.000,-4.500,
162.000,-4.530,
163.000,-4.540,
164.000,-4.520,
165.000,-4.530,
166.000,-4.530,
167.000,-4.550,
168.000,-4.580,
169.000,-4.600,
170.000,-4.620,
171.000,-4.620,
172.000,-4.620,
173.000,-4.640,
174.000,-4.630,
175.000,-4.620,
176.000,-4.570,
177.000,-4.550,
178.000,-4.530,
179.000,-4.530,
ENDFIL:,EOF
