REVNUM:,TIA/EIA-804-B
COMNT1:,Standard TIA/EIA Antenna Pattern Data
COMNT2:,Stated gain is nominal
ANTMAN:,RF Industries Pty Ltd
MODNUM:,SMD4-67 at 0.25 wave spacing
DESCR1:,Side mount dipole, 400-520 MHz
DESCR2:,1/4 Wave spacing, 2dBd, 0o Downtilt
DTDATA:,20051202
LOWFRQ:,400
HGHFRQ:,520
GUNITS:,DBD/DBR
MDGAIN:,2.0
AZWIDT:,220
ELWIDT:,70
CONTYP:,N (F)
ATVSWR:,1.5
FRTOBA:,11
ELTILT:,0
MAXPOW:,500
ANTLEN:,0.4
ANTWID:,0.2
ANTWGT:,0.3
PATTYP:,Typical
NOFREQ:,1
PATFRE:,460
NUMCUT:,2
PATCUT:,V
POLARI:,V/V
NUPOIN:,360
FSTLST:,-179,180
-179,-10.794
-178,-10.793
-177,-10.792
-176,-10.791
-175,-10.789
-174,-10.787
-173,-10.785
-172,-10.783
-171,-10.781
-170,-10.779
-169,-10.778
-168,-10.778
-167,-10.778
-166,-10.780
-165,-10.783
-164,-10.787
-163,-10.794
-162,-10.802
-161,-10.813
-160,-10.827
-159,-10.843
-158,-10.863
-157,-10.886
-156,-10.913
-155,-10.945
-154,-10.980
-153,-11.021
-152,-11.066
-151,-11.117
-150,-11.174
-149,-11.237
-148,-11.305
-147,-11.381
-146,-11.464
-145,-11.553
-144,-11.651
-143,-11.756
-142,-11.869
-141,-11.991
-140,-12.122
-139,-12.262
-138,-12.412
-137,-12.572
-136,-12.743
-135,-12.924
-134,-13.117
-133,-13.322
-132,-13.540
-131,-13.770
-130,-14.015
-129,-14.274
-128,-14.549
-127,-14.840
-126,-15.149
-125,-15.476
-124,-15.823
-123,-16.193
-122,-16.585
-121,-17.003
-120,-17.450
-119,-17.927
-118,-18.439
-117,-18.989
-116,-19.584
-115,-20.228
-114,-20.931
-113,-21.702
-112,-22.555
-111,-23.507
-110,-24.582
-109,-25.814
-108,-27.255
-107,-28.984
-106,-31.134
-105,-33.951
-104,-37.882
-103,-42.830
-102,-41.435
-101,-36.511
-100,-32.944
-99,-30.333
-98,-28.297
-97,-26.634
-96,-25.230
-95,-24.015
-94,-22.944
-93,-21.987
-92,-21.121
-91,-20.329
-90,-19.601
-89,-18.925
-88,-18.294
-87,-17.703
-86,-17.146
-85,-16.620
-84,-16.119
-83,-15.643
-82,-15.188
-81,-14.752
-80,-14.333
-79,-13.929
-78,-13.540
-77,-13.163
-76,-12.799
-75,-12.445
-74,-12.102
-73,-11.767
-72,-11.442
-71,-11.124
-70,-10.813
-69,-10.510
-68,-10.213
-67,-9.922
-66,-9.637
-65,-9.357
-64,-9.083
-63,-8.814
-62,-8.549
-61,-8.289
-60,-8.033
-59,-7.782
-58,-7.534
-57,-7.291
-56,-7.051
-55,-6.816
-54,-6.584
-53,-6.356
-52,-6.132
-51,-5.911
-50,-5.694
-49,-5.481
-48,-5.271
-47,-5.065
-46,-4.862
-45,-4.664
-44,-4.468
-43,-4.277
-42,-4.089
-41,-3.905
-40,-3.725
-39,-3.548
-38,-3.376
-37,-3.207
-36,-3.042
-35,-2.881
-34,-2.724
-33,-2.571
-32,-2.422
-31,-2.277
-30,-2.136
-29,-1.999
-28,-1.867
-27,-1.739
-26,-1.615
-25,-1.495
-24,-1.380
-23,-1.269
-22,-1.163
-21,-1.061
-20,-0.964
-19,-0.871
-18,-0.782
-17,-0.699
-16,-0.619
-15,-0.545
-14,-0.475
-13,-0.410
-12,-0.350
-11,-0.294
-10,-0.243
-9,-0.197
-8,-0.156
-7,-0.119
-6,-0.088
-5,-0.061
-4,-0.039
-3,-0.022
-2,-0.010
-1,-0.002
0,0.000
1,-0.002
2,-0.010
3,-0.022
4,-0.039
5,-0.061
6,-0.088
7,-0.119
8,-0.156
9,-0.197
10,-0.243
11,-0.294
12,-0.349
13,-0.410
14,-0.475
15,-0.545
16,-0.619
17,-0.698
18,-0.782
19,-0.870
20,-0.963
21,-1.061
22,-1.163
23,-1.269
24,-1.380
25,-1.495
26,-1.614
27,-1.738
28,-1.866
29,-1.999
30,-2.135
31,-2.276
32,-2.421
33,-2.570
34,-2.723
35,-2.880
36,-3.041
37,-3.206
38,-3.375
39,-3.548
40,-3.724
41,-3.904
42,-4.089
43,-4.276
44,-4.468
45,-4.663
46,-4.862
47,-5.064
48,-5.270
49,-5.480
50,-5.694
51,-5.911
52,-6.131
53,-6.355
54,-6.583
55,-6.815
56,-7.051
57,-7.290
58,-7.533
59,-7.781
60,-8.032
61,-8.288
62,-8.548
63,-8.813
64,-9.082
65,-9.357
66,-9.636
67,-9.921
68,-10.212
69,-10.509
70,-10.812
71,-11.123
72,-11.441
73,-11.767
74,-12.101
75,-12.445
76,-12.798
77,-13.163
78,-13.539
79,-13.929
80,-14.332
81,-14.751
82,-15.187
83,-15.643
84,-16.119
85,-16.620
86,-17.147
87,-17.704
88,-18.295
89,-18.926
90,-19.602
91,-20.331
92,-21.122
93,-21.989
94,-22.947
95,-24.018
96,-25.234
97,-26.639
98,-28.304
99,-30.342
100,-32.958
101,-36.533
102,-41.467
103,-42.818
104,-37.860
105,-33.933
106,-31.121
107,-28.972
108,-27.245
109,-25.806
110,-24.574
111,-23.500
112,-22.549
113,-21.697
114,-20.926
115,-20.224
116,-19.579
117,-18.985
118,-18.435
119,-17.923
120,-17.446
121,-17.000
122,-16.582
123,-16.190
124,-15.821
125,-15.474
126,-15.147
127,-14.838
128,-14.547
129,-14.273
130,-14.014
131,-13.769
132,-13.539
133,-13.321
134,-13.117
135,-12.924
136,-12.742
137,-12.572
138,-12.412
139,-12.262
140,-12.122
141,-11.991
142,-11.869
143,-11.756
144,-11.651
145,-11.554
146,-11.464
147,-11.382
148,-11.306
149,-11.237
150,-11.175
151,-11.118
152,-11.067
153,-11.022
154,-10.982
155,-10.946
156,-10.915
157,-10.887
158,-10.864
159,-10.844
160,-10.828
161,-10.814
162,-10.804
163,-10.795
164,-10.789
165,-10.784
166,-10.781
167,-10.779
168,-10.779
169,-10.779
170,-10.780
171,-10.782
172,-10.784
173,-10.786
174,-10.788
175,-10.790
176,-10.791
177,-10.793
178,-10.794
179,-10.794
180,-10.794
PATCUT:,H
POLARI:,V/V
NUPOIN:,360
FSTLST:,-179,180
-179,-10.794
-178,-10.793
-177,-10.791
-176,-10.789
-175,-10.786
-174,-10.782
-173,-10.777
-172,-10.771
-171,-10.765
-170,-10.757
-169,-10.747
-168,-10.737
-167,-10.725
-166,-10.711
-165,-10.696
-164,-10.679
-163,-10.660
-162,-10.638
-161,-10.614
-160,-10.588
-159,-10.559
-158,-10.527
-157,-10.492
-156,-10.454
-155,-10.412
-154,-10.367
-153,-10.318
-152,-10.266
-151,-10.210
-150,-10.150
-149,-10.086
-148,-10.017
-147,-9.945
-146,-9.868
-145,-9.787
-144,-9.702
-143,-9.613
-142,-9.520
-141,-9.423
-140,-9.321
-139,-9.216
-138,-9.107
-137,-8.995
-136,-8.879
-135,-8.760
-134,-8.637
-133,-8.512
-132,-8.384
-131,-8.253
-130,-8.121
-129,-7.986
-128,-7.849
-127,-7.710
-126,-7.570
-125,-7.429
-124,-7.286
-123,-7.143
-122,-6.999
-121,-6.854
-120,-6.709
-119,-6.564
-118,-6.419
-117,-6.275
-116,-6.130
-115,-5.986
-114,-5.843
-113,-5.701
-112,-5.559
-111,-5.419
-110,-5.279
-109,-5.141
-108,-5.004
-107,-4.869
-106,-4.735
-105,-4.602
-104,-4.472
-103,-4.343
-102,-4.216
-101,-4.090
-100,-3.967
-99,-3.845
-98,-3.726
-97,-3.608
-96,-3.493
-95,-3.379
-94,-3.268
-93,-3.159
-92,-3.052
-91,-2.947
-90,-2.844
-89,-2.744
-88,-2.645
-87,-2.549
-86,-2.455
-85,-2.363
-84,-2.273
-83,-2.186
-82,-2.101
-81,-2.017
-80,-1.936
-79,-1.858
-78,-1.781
-77,-1.706
-76,-1.634
-75,-1.563
-74,-1.495
-73,-1.428
-72,-1.364
-71,-1.302
-70,-1.241
-69,-1.183
-68,-1.126
-67,-1.071
-66,-1.019
-65,-0.968
-64,-0.918
-63,-0.871
-62,-0.825
-61,-0.781
-60,-0.739
-59,-0.698
-58,-0.659
-57,-0.622
-56,-0.586
-55,-0.552
-54,-0.519
-53,-0.487
-52,-0.457
-51,-0.428
-50,-0.401
-49,-0.375
-48,-0.350
-47,-0.327
-46,-0.304
-45,-0.283
-44,-0.263
-43,-0.244
-42,-0.226
-41,-0.209
-40,-0.193
-39,-0.178
-38,-0.163
-37,-0.150
-36,-0.138
-35,-0.126
-34,-0.115
-33,-0.105
-32,-0.095
-31,-0.087
-30,-0.078
-29,-0.071
-28,-0.064
-27,-0.057
-26,-0.051
-25,-0.046
-24,-0.041
-23,-0.036
-22,-0.032
-21,-0.028
-20,-0.025
-19,-0.022
-18,-0.019
-17,-0.016
-16,-0.014
-15,-0.012
-14,-0.010
-13,-0.008
-12,-0.007
-11,-0.006
-10,-0.005
-9,-0.004
-8,-0.003
-7,-0.002
-6,-0.002
-5,-0.001
-4,-0.001
-3,0.000
-2,0.000
-1,0.000
0,0.000
1,0.000
2,0.000
3,0.000
4,-0.001
5,-0.001
6,-0.002
7,-0.002
8,-0.003
9,-0.004
10,-0.005
11,-0.006
12,-0.007
13,-0.008
14,-0.010
15,-0.012
16,-0.014
17,-0.016
18,-0.019
19,-0.022
20,-0.025
21,-0.028
22,-0.032
23,-0.036
24,-0.041
25,-0.046
26,-0.051
27,-0.057
28,-0.064
29,-0.071
30,-0.078
31,-0.087
32,-0.095
33,-0.105
34,-0.115
35,-0.126
36,-0.138
37,-0.150
38,-0.163
39,-0.178
40,-0.193
41,-0.209
42,-0.226
43,-0.244
44,-0.263
45,-0.283
46,-0.304
47,-0.327
48,-0.350
49,-0.375
50,-0.401
51,-0.428
52,-0.457
53,-0.487
54,-0.519
55,-0.552
56,-0.586
57,-0.622
58,-0.659
59,-0.698
60,-0.739
61,-0.781
62,-0.825
63,-0.871
64,-0.918
65,-0.968
66,-1.019
67,-1.071
68,-1.126
69,-1.183
70,-1.241
71,-1.302
72,-1.364
73,-1.428
74,-1.495
75,-1.563
76,-1.634
77,-1.706
78,-1.781
79,-1.858
80,-1.936
81,-2.017
82,-2.101
83,-2.186
84,-2.273
85,-2.363
86,-2.455
87,-2.549
88,-2.645
89,-2.744
90,-2.844
91,-2.947
92,-3.052
93,-3.159
94,-3.268
95,-3.379
96,-3.493
97,-3.608
98,-3.726
99,-3.845
100,-3.967
101,-4.090
102,-4.216
103,-4.343
104,-4.472
105,-4.602
106,-4.735
107,-4.869
108,-5.004
109,-5.141
110,-5.279
111,-5.419
112,-5.559
113,-5.701
114,-5.843
115,-5.986
116,-6.130
117,-6.275
118,-6.419
119,-6.564
120,-6.709
121,-6.854
122,-6.999
123,-7.143
124,-7.286
125,-7.429
126,-7.570
127,-7.710
128,-7.849
129,-7.986
130,-8.121
131,-8.253
132,-8.384
133,-8.512
134,-8.637
135,-8.760
136,-8.879
137,-8.995
138,-9.107
139,-9.216
140,-9.321
141,-9.423
142,-9.520
143,-9.613
144,-9.702
145,-9.787
146,-9.868
147,-9.945
148,-10.017
149,-10.086
150,-10.150
151,-10.210
152,-10.266
153,-10.318
154,-10.367
155,-10.412
156,-10.454
157,-10.492
158,-10.527
159,-10.559
160,-10.588
161,-10.614
162,-10.638
163,-10.660
164,-10.679
165,-10.696
166,-10.711
167,-10.725
168,-10.737
169,-10.747
170,-10.757
171,-10.765
172,-10.771
173,-10.777
174,-10.782
175,-10.786
176,-10.789
177,-10.791
178,-10.793
179,-10.794
180,-10.794
ENDFIL:,EOF
